Multi_50%TiO2_50%MnO
Wavelength = 1.54059 Ã… (Cu)
Angle	I(o)	I(b)
10.0	4787	5516
10.01	4823	5516
10.02	4863	5515
10.03	4832	5515
10.04	4825	5515
10.05	4884	5515
10.06	4846	5514
10.07	4786	5514
10.08	4821	5514
10.09	4860	5514
10.1	4892	5514
10.11	4891	5513
10.12	4959	5513
10.13	4988	5513
10.14	4950	5513
10.15	4882	5512
10.16	4936	5512
10.17	4906	5512
10.18	4899	5512
10.19	4952	5512
10.2	4869	5511
10.21	4853	5511
10.22	4944	5511
10.23	5023	5511
10.24	5014	5510
10.25	4974	5510
10.26	4994	5510
10.27	5024	5510
10.28	5049	5510
10.29	4984	5510
10.3	5012	5509
10.31	5021	5509
10.32	5043	5509
10.33	4990	5509
10.34	5103	5509
10.35	5159	5509
10.36	5143	5508
10.37	5064	5508
10.38	4959	5508
10.39	5043	5508
10.4	5070	5508
10.41	5104	5508
10.42	5085	5508
10.43	5041	5507
10.44	5078	5507
10.45	5093	5507
10.46	5144	5507
10.47	5158	5507
10.48	5120	5507
10.49	5203	5507
10.5	5150	5507
10.51	5121	5507
10.52	5170	5507
10.53	5257	5507
10.54	5221	5507
10.55	5258	5507
10.56	5194	5507
10.57	5220	5507
10.58	5182	5507
10.59	5288	5507
10.6	5322	5507
10.61	5231	5507
10.62	5205	5507
10.63	5231	5507
10.64	5231	5507
10.65	5314	5507
10.66	5286	5507
10.67	5241	5507
10.68	5241	5507
10.69	5357	5507
10.7	5287	5507
10.71	5381	5507
10.72	5332	5508
10.73	5314	5508
10.74	5298	5508
10.75	5263	5508
10.76	5290	5508
10.77	5432	5508
10.78	5401	5509
10.79	5416	5509
10.8	5348	5509
10.81	5378	5509
10.82	5469	5509
10.83	5501	5510
10.84	5441	5510
10.85	5430	5510
10.86	5458	5511
10.87	5379	5511
10.88	5363	5511
10.89	5408	5511
10.9	5423	5512
10.91	5479	5512
10.92	5498	5513
10.93	5523	5513
10.94	5530	5513
10.95	5536	5514
10.96	5426	5514
10.97	5365	5515
10.98	5596	5515
10.99	5526	5515
11.0	5473	5516
11.01	5553	5516
11.02	5492	5517
11.03	5535	5517
11.04	5492	5518
11.05	5558	5519
11.06	5535	5519
11.07	5565	5520
11.08	5579	5520
11.09	5619	5521
11.1	5687	5521
11.11	5657	5522
11.12	5580	5523
11.13	5620	5523
11.14	5617	5524
11.15	5628	5525
11.16	5620	5525
11.17	5610	5526
11.18	5577	5527
11.19	5566	5528
11.2	5661	5528
11.21	5638	5529
11.22	5792	5530
11.23	5707	5531
11.24	5681	5532
11.25	5762	5532
11.26	5810	5533
11.27	5717	5534
11.28	5736	5535
11.29	5774	5536
11.3	5723	5537
11.31	5727	5538
11.32	5703	5539
11.33	5859	5540
11.34	5824	5540
11.35	5811	5541
11.36	5707	5542
11.37	5779	5543
11.38	5732	5544
11.39	5783	5545
11.4	5841	5546
11.41	5770	5548
11.42	5830	5549
11.43	5794	5550
11.44	5827	5551
11.45	5855	5552
11.46	5933	5553
11.47	5901	5554
11.48	5904	5555
11.49	5988	5556
11.5	5980	5558
11.51	5908	5559
11.52	5978	5560
11.53	5935	5561
11.54	5834	5562
11.55	5865	5564
11.56	5917	5565
11.57	5924	5566
11.58	5962	5567
11.59	5846	5569
11.6	5958	5570
11.61	5985	5571
11.62	6023	5573
11.63	6033	5574
11.64	5989	5575
11.65	5997	5577
11.66	6195	5578
11.67	6148	5579
11.68	6079	5581
11.69	6097	5582
11.7	5952	5584
11.71	6048	5585
11.72	6185	5586
11.73	6043	5588
11.74	6070	5589
11.75	6216	5591
11.76	6211	5592
11.77	6160	5594
11.78	6140	5595
11.79	6066	5597
11.8	6195	5598
11.81	6193	5600
11.82	6236	5602
11.83	6141	5603
11.84	6119	5605
11.85	6219	5606
11.86	6129	5608
11.87	6165	5610
11.88	6145	5611
11.89	6153	5613
11.9	6183	5615
11.91	6243	5616
11.92	6240	5618
11.93	6310	5620
11.94	6301	5621
11.95	6291	5623
11.96	6225	5625
11.97	6168	5627
11.98	6329	5628
11.99	6332	5630
12.0	6371	5632
12.01	6293	5634
12.02	6332	5636
12.03	6385	5637
12.04	6324	5639
12.05	6268	5641
12.06	6269	5643
12.07	6369	5645
12.08	6426	5647
12.09	6393	5649
12.1	6368	5651
12.11	6329	5653
12.12	6296	5654
12.13	6331	5656
12.14	6382	5658
12.15	6386	5660
12.16	6419	5662
12.17	6456	5664
12.18	6453	5666
12.19	6460	5668
12.2	6511	5670
12.21	6609	5672
12.22	6472	5674
12.23	6454	5676
12.24	6510	5679
12.25	6557	5681
12.26	6498	5683
12.27	6572	5685
12.28	6535	5687
12.29	6554	5689
12.3	6616	5691
12.31	6541	5693
12.32	6610	5696
12.33	6639	5698
12.34	6620	5700
12.35	6617	5702
12.36	6556	5704
12.37	6578	5706
12.38	6581	5709
12.39	6667	5711
12.4	6616	5713
12.41	6707	5715
12.42	6781	5718
12.43	6736	5720
12.44	6651	5722
12.45	6756	5725
12.46	6713	5727
12.47	6691	5729
12.48	6674	5732
12.49	6774	5734
12.5	6777	5736
12.51	6798	5739
12.52	6803	5741
12.53	6885	5743
12.54	6929	5746
12.55	6951	5748
12.56	7005	5751
12.57	6969	5753
12.58	6902	5755
12.59	6989	5758
12.6	7019	5760
12.61	7040	5763
12.62	6983	5765
12.63	6996	5768
12.64	7049	5770
12.65	7135	5773
12.66	7114	5775
12.67	7158	5778
12.68	7066	5780
12.69	7182	5783
12.7	7156	5786
12.71	7136	5788
12.72	7145	5791
12.73	7237	5793
12.74	7243	5796
12.75	7185	5799
12.76	7263	5801
12.77	7369	5804
12.78	7340	5806
12.79	7340	5809
12.8	7359	5812
12.81	7421	5814
12.82	7433	5817
12.83	7389	5820
12.84	7394	5822
12.85	7417	5825
12.86	7483	5828
12.87	7547	5831
12.88	7447	5833
12.89	7530	5836
12.9	7624	5839
12.91	7646	5842
12.92	7609	5844
12.93	7555	5847
12.94	7680	5850
12.95	7783	5853
12.96	7724	5856
12.97	7807	5858
12.98	7852	5861
12.99	7792	5864
13.0	7824	5867
13.01	7854	5870
13.02	7979	5873
13.03	7988	5876
13.04	7946	5879
13.05	8054	5881
13.06	8024	5884
13.07	7974	5887
13.08	8054	5890
13.09	8036	5893
13.1	8033	5896
13.11	8174	5899
13.12	8219	5902
13.13	8194	5905
13.14	8255	5908
13.15	8375	5911
13.16	8364	5914
13.17	8411	5917
13.18	8428	5920
13.19	8511	5923
13.2	8533	5926
13.21	8567	5929
13.22	8561	5932
13.23	8520	5935
13.24	8562	5938
13.25	8661	5941
13.26	8691	5944
13.27	8666	5948
13.28	8778	5951
13.29	8612	5954
13.3	8726	5957
13.31	8875	5960
13.32	8924	5963
13.33	8934	5966
13.34	9026	5969
13.35	8946	5973
13.36	9015	5976
13.37	9062	5979
13.38	9104	5982
13.39	9196	5985
13.4	9261	5989
13.41	9186	5992
13.42	9244	5995
13.43	9399	5998
13.44	9460	6001
13.45	9441	6005
13.46	9412	6008
13.47	9516	6011
13.48	9598	6015
13.49	9569	6018
13.5	9640	6021
13.51	9728	6024
13.52	9794	6028
13.53	9830	6031
13.54	9882	6034
13.55	9815	6038
13.56	9822	6041
13.57	9874	6044
13.58	10004	6048
13.59	10029	6051
13.6	9937	6054
13.61	10044	6058
13.62	10209	6061
13.63	10210	6065
13.64	10306	6068
13.65	10311	6071
13.66	10245	6075
13.67	10356	6078
13.68	10461	6082
13.69	10493	6085
13.7	10518	6089
13.71	10530	6092
13.72	10689	6095
13.73	10768	6099
13.74	10745	6102
13.75	10662	6106
13.76	10657	6109
13.77	10835	6113
13.78	10866	6116
13.79	10901	6120
13.8	10904	6123
13.81	10943	6127
13.82	11041	6130
13.83	11020	6134
13.84	11048	6138
13.85	11110	6141
13.86	11229	6145
13.87	11400	6148
13.88	11336	6152
13.89	11383	6155
13.9	11372	6159
13.91	11231	6163
13.92	11318	6166
13.93	11424	6170
13.94	11481	6173
13.95	11427	6177
13.96	11530	6181
13.97	11586	6184
13.98	11647	6188
13.99	11812	6192
14.0	11899	6195
14.01	11875	6199
14.02	11907	6203
14.03	11962	6206
14.04	11839	6210
14.05	11853	6214
14.06	11970	6217
14.07	11994	6221
14.08	12140	6225
14.09	12069	6229
14.1	12044	6232
14.11	12218	6236
14.12	12307	6240
14.13	12238	6243
14.14	12200	6247
14.15	12296	6251
14.16	12406	6255
14.17	12332	6259
14.18	12335	6262
14.19	12458	6266
14.2	12422	6270
14.21	12417	6274
14.22	12391	6278
14.23	12460	6281
14.24	12645	6285
14.25	12643	6289
14.26	12655	6293
14.27	12611	6297
14.28	12559	6300
14.29	12590	6304
14.3	12602	6308
14.31	12688	6312
14.32	12651	6316
14.33	12764	6320
14.34	12803	6324
14.35	12774	6328
14.36	12894	6331
14.37	12962	6335
14.38	12817	6339
14.39	12769	6343
14.4	12952	6347
14.41	12943	6351
14.42	12886	6355
14.43	12958	6359
14.44	12908	6363
14.45	12888	6367
14.46	12990	6371
14.47	13081	6375
14.48	13148	6379
14.49	13167	6382
14.5	13142	6386
14.51	12974	6390
14.52	12951	6394
14.53	13120	6398
14.54	13078	6402
14.55	13011	6406
14.56	12987	6410
14.57	13086	6414
14.58	13105	6418
14.59	13010	6422
14.6	13044	6426
14.61	13118	6430
14.62	13127	6434
14.63	13187	6439
14.64	13203	6443
14.65	13173	6447
14.66	13195	6451
14.67	13134	6455
14.68	13044	6459
14.69	13003	6463
14.7	13021	6467
14.71	13212	6471
14.72	13134	6475
14.73	13124	6479
14.74	13090	6483
14.75	13161	6487
14.76	13140	6491
14.77	13072	6496
14.78	13055	6500
14.79	13012	6504
14.8	13049	6508
14.81	13169	6512
14.82	13179	6516
14.83	13099	6520
14.84	13161	6524
14.85	13224	6529
14.86	13149	6533
14.87	13097	6537
14.88	13050	6541
14.89	13180	6545
14.9	13249	6549
14.91	13198	6554
14.92	13111	6558
14.93	13083	6562
14.94	13111	6566
14.95	13203	6570
14.96	13227	6574
14.97	13172	6579
14.98	13084	6583
14.99	13004	6587
15.0	12956	6591
15.01	12982	6596
15.02	13099	6600
15.03	13058	6604
15.04	12994	6608
15.05	13021	6612
15.06	13058	6617
15.07	13023	6621
15.08	12999	6625
15.09	12992	6629
15.1	12967	6634
15.11	13029	6638
15.12	12876	6642
15.13	12777	6646
15.14	12835	6651
15.15	12908	6655
15.16	12960	6659
15.17	12962	6663
15.18	13012	6668
15.19	12908	6672
15.2	12829	6676
15.21	12804	6681
15.22	12907	6685
15.23	12839	6689
15.24	12790	6694
15.25	12847	6698
15.26	12817	6702
15.27	12776	6706
15.28	12808	6711
15.29	12852	6715
15.3	12912	6719
15.31	12932	6724
15.32	12815	6728
15.33	12710	6732
15.34	12679	6737
15.35	12784	6741
15.36	12830	6745
15.37	12858	6750
15.38	12758	6754
15.39	12712	6759
15.4	12767	6763
15.41	12656	6767
15.42	12652	6772
15.43	12706	6776
15.44	12634	6780
15.45	12662	6785
15.46	12622	6789
15.47	12606	6794
15.48	12641	6798
15.49	12594	6802
15.5	12607	6807
15.51	12650	6811
15.52	12665	6815
15.53	12548	6820
15.54	12568	6824
15.55	12564	6829
15.56	12563	6833
15.57	12559	6837
15.58	12454	6842
15.59	12494	6846
15.6	12542	6851
15.61	12438	6855
15.62	12409	6860
15.63	12391	6864
15.64	12339	6868
15.65	12500	6873
15.66	12533	6877
15.67	12444	6882
15.68	12439	6886
15.69	12429	6891
15.7	12377	6895
15.71	12367	6900
15.72	12398	6904
15.73	12355	6908
15.74	12358	6913
15.75	12394	6917
15.76	12380	6922
15.77	12363	6926
15.78	12323	6931
15.79	12296	6935
15.8	12257	6940
15.81	12228	6944
15.82	12145	6949
15.83	12043	6953
15.84	12135	6958
15.85	12169	6962
15.86	12239	6966
15.87	12276	6971
15.88	12273	6975
15.89	12264	6980
15.9	12221	6984
15.91	12179	6989
15.92	12112	6993
15.93	12112	6998
15.94	12087	7002
15.95	12043	7007
15.96	12093	7011
15.97	12078	7016
15.98	12127	7020
15.99	12164	7025
16.0	12087	7029
16.01	12084	7034
16.02	12073	7038
16.03	12027	7043
16.04	11986	7047
16.05	11949	7052
16.06	12091	7056
16.07	12103	7061
16.08	12056	7065
16.09	12081	7070
16.1	12173	7075
16.11	12140	7079
16.12	12026	7084
16.13	11937	7088
16.14	11920	7093
16.15	11958	7097
16.16	11875	7102
16.17	11889	7106
16.18	11985	7111
16.19	12058	7115
16.2	12050	7120
16.21	11982	7124
16.22	11965	7129
16.23	12036	7133
16.24	12101	7138
16.25	12023	7143
16.26	12041	7147
16.27	12054	7152
16.28	12016	7156
16.29	12036	7161
16.3	12018	7165
16.31	12030	7170
16.32	12000	7174
16.33	11995	7179
16.34	12090	7183
16.35	12144	7188
16.36	11980	7192
16.37	11916	7197
16.38	12048	7202
16.39	12085	7206
16.4	11929	7211
16.41	11868	7215
16.42	11872	7220
16.43	11893	7224
16.44	11893	7229
16.45	11973	7233
16.46	11915	7238
16.47	11833	7243
16.48	11894	7247
16.49	12032	7252
16.5	12009	7256
16.51	11935	7261
16.52	12006	7265
16.53	12027	7270
16.54	12041	7274
16.55	12024	7279
16.56	11950	7284
16.57	11900	7288
16.58	11900	7293
16.59	11931	7297
16.6	12006	7302
16.61	12031	7306
16.62	11968	7311
16.63	11935	7316
16.64	11931	7320
16.65	12011	7325
16.66	11927	7329
16.67	11950	7334
16.68	12092	7338
16.69	12035	7343
16.7	11953	7347
16.71	11878	7352
16.72	11835	7357
16.73	11973	7361
16.74	12007	7366
16.75	11942	7370
16.76	11965	7375
16.77	12002	7379
16.78	11974	7384
16.79	11998	7388
16.8	12065	7393
16.81	12043	7398
16.82	11952	7402
16.83	11880	7407
16.84	11921	7411
16.85	11969	7416
16.86	11981	7420
16.87	11939	7425
16.88	11978	7429
16.89	11939	7434
16.9	11916	7439
16.91	11950	7443
16.92	11963	7448
16.93	11999	7452
16.94	12038	7457
16.95	11998	7461
16.96	11964	7466
16.97	11985	7470
16.98	11995	7475
16.99	12054	7479
17.0	12108	7484
17.01	12096	7489
17.02	12100	7493
17.03	12144	7498
17.04	12093	7502
17.05	11998	7507
17.06	11989	7511
17.07	12083	7516
17.08	12048	7520
17.09	11881	7525
17.1	11940	7529
17.11	12046	7534
17.12	11979	7538
17.13	11991	7543
17.14	11996	7548
17.15	11977	7552
17.16	12032	7557
17.17	12022	7561
17.18	11974	7566
17.19	11915	7570
17.2	11930	7575
17.21	12086	7579
17.22	12149	7584
17.23	12024	7588
17.24	11895	7593
17.25	11905	7597
17.26	11915	7602
17.27	11876	7606
17.28	11934	7611
17.29	12021	7615
17.3	12042	7620
17.31	12059	7624
17.32	12155	7629
17.33	12156	7633
17.34	12100	7638
17.35	12071	7642
17.36	12042	7647
17.37	12052	7651
17.38	12079	7656
17.39	12152	7660
17.4	12141	7665
17.41	12101	7669
17.42	12066	7674
17.43	12039	7678
17.44	12099	7683
17.45	12126	7687
17.46	12099	7692
17.47	12096	7696
17.48	12055	7701
17.49	11946	7705
17.5	11943	7710
17.51	12077	7714
17.52	12094	7718
17.53	12031	7723
17.54	12035	7727
17.55	12045	7732
17.56	12045	7736
17.57	12062	7741
17.58	12068	7745
17.59	12132	7750
17.6	12217	7754
17.61	12191	7759
17.62	12168	7763
17.63	12143	7767
17.64	12106	7772
17.65	12163	7776
17.66	12229	7781
17.67	12211	7785
17.68	12250	7790
17.69	12230	7794
17.7	12168	7798
17.71	12203	7803
17.72	12210	7807
17.73	12160	7812
17.74	12088	7816
17.75	12116	7820
17.76	12184	7825
17.77	12201	7829
17.78	12233	7834
17.79	12192	7838
17.8	12127	7842
17.81	12171	7847
17.82	12229	7851
17.83	12253	7856
17.84	12261	7860
17.85	12243	7864
17.86	12199	7869
17.87	12213	7873
17.88	12297	7877
17.89	12288	7882
17.9	12255	7886
17.91	12244	7891
17.92	12224	7895
17.93	12234	7899
17.94	12262	7904
17.95	12246	7908
17.96	12164	7912
17.97	12173	7917
17.98	12205	7921
17.99	12186	7925
18.0	12219	7930
18.01	12320	7934
18.02	12408	7938
18.03	12433	7943
18.04	12375	7947
18.05	12272	7951
18.06	12146	7956
18.07	12095	7960
18.08	12113	7964
18.09	12135	7968
18.1	12189	7973
18.11	12190	7977
18.12	12166	7981
18.13	12268	7986
18.14	12318	7990
18.15	12260	7994
18.16	12233	7998
18.17	12351	8003
18.18	12394	8007
18.19	12208	8011
18.2	12137	8015
18.21	12222	8020
18.22	12317	8024
18.23	12297	8028
18.24	12266	8032
18.25	12286	8037
18.26	12289	8041
18.27	12304	8045
18.28	12293	8049
18.29	12299	8054
18.3	12346	8058
18.31	12387	8062
18.32	12337	8066
18.33	12291	8070
18.34	12293	8075
18.35	12325	8079
18.36	12337	8083
18.37	12287	8087
18.38	12258	8091
18.39	12325	8095
18.4	12332	8100
18.41	12364	8104
18.42	12409	8108
18.43	12359	8112
18.44	12331	8116
18.45	12432	8120
18.46	12465	8125
18.47	12416	8129
18.48	12431	8133
18.49	12526	8137
18.5	12641	8141
18.51	12631	8145
18.52	12505	8149
18.53	12543	8153
18.54	12618	8157
18.55	12626	8162
18.56	12671	8166
18.57	12796	8170
18.58	12764	8174
18.59	12748	8178
18.6	12840	8182
18.61	12839	8186
18.62	12936	8190
18.63	13120	8194
18.64	13310	8198
18.65	13362	8202
18.66	13416	8206
18.67	13586	8210
18.68	13728	8214
18.69	13841	8218
18.7	13891	8222
18.71	14054	8226
18.72	14318	8230
18.73	14452	8234
18.74	14414	8238
18.75	14418	8242
18.76	14539	8246
18.77	14533	8250
18.78	14359	8254
18.79	14186	8258
18.8	13923	8262
18.81	13696	8266
18.82	13508	8270
18.83	13300	8274
18.84	13103	8278
18.85	12955	8282
18.86	12805	8286
18.87	12657	8290
18.88	12606	8294
18.89	12513	8298
18.9	12413	8302
18.91	12406	8306
18.92	12491	8310
18.93	12410	8313
18.94	12257	8317
18.95	12353	8321
18.96	12494	8325
18.97	12462	8329
18.98	12381	8333
18.99	12448	8337
19.0	12408	8341
19.01	12438	8344
19.02	12352	8348
19.03	12325	8352
19.04	12430	8356
19.05	12460	8360
19.06	12364	8364
19.07	12413	8367
19.08	12448	8371
19.09	12442	8375
19.1	12422	8379
19.11	12446	8383
19.12	12409	8386
19.13	12332	8390
19.14	12323	8394
19.15	12278	8398
19.16	12255	8401
19.17	12319	8405
19.18	12338	8409
19.19	12270	8413
19.2	12243	8416
19.21	12374	8420
19.22	12434	8424
19.23	12347	8428
19.24	12326	8431
19.25	12307	8435
19.26	12256	8439
19.27	12286	8442
19.28	12292	8446
19.29	12312	8450
19.3	12400	8453
19.31	12400	8457
19.32	12367	8461
19.33	12341	8464
19.34	12375	8468
19.35	12391	8472
19.36	12384	8475
19.37	12290	8479
19.38	12271	8482
19.39	12219	8486
19.4	12245	8490
19.41	12393	8493
19.42	12381	8497
19.43	12329	8500
19.44	12235	8504
19.45	12190	8507
19.46	12246	8511
19.47	12344	8514
19.48	12402	8518
19.49	12383	8522
19.5	12339	8525
19.51	12355	8529
19.52	12336	8532
19.53	12332	8536
19.54	12408	8539
19.55	12410	8543
19.56	12301	8546
19.57	12220	8550
19.58	12148	8553
19.59	12147	8556
19.6	12251	8560
19.61	12269	8563
19.62	12352	8567
19.63	12246	8570
19.64	12192	8574
19.65	12057	8577
19.66	12023	8580
19.67	12113	8584
19.68	12227	8587
19.69	12259	8591
19.7	12208	8594
19.71	12151	8597
19.72	12172	8601
19.73	12195	8604
19.74	12310	8607
19.75	12302	8611
19.76	12312	8614
19.77	12360	8617
19.78	12404	8621
19.79	12333	8624
19.8	12290	8627
19.81	12286	8631
19.82	12142	8634
19.83	12211	8637
19.84	12246	8640
19.85	12216	8644
19.86	12154	8647
19.87	12152	8650
19.88	12137	8653
19.89	12257	8656
19.9	12345	8660
19.91	12170	8663
19.92	12163	8666
19.93	12147	8669
19.94	12139	8672
19.95	12190	8676
19.96	12281	8679
19.97	12244	8682
19.98	12205	8685
19.99	12282	8688
20.0	12273	8691
20.01	12184	8694
20.02	12228	8698
20.03	12207	8701
20.04	12162	8704
20.05	12286	8707
20.06	12320	8710
20.07	12251	8713
20.08	12256	8716
20.09	12316	8719
20.1	12203	8722
20.11	12149	8725
20.12	12152	8728
20.13	12108	8731
20.14	12158	8734
20.15	12243	8737
20.16	12114	8740
20.17	12072	8743
20.18	12178	8746
20.19	12218	8749
20.2	12261	8752
20.21	12267	8755
20.22	12324	8758
20.23	12410	8761
20.24	12239	8764
20.25	12138	8767
20.26	12210	8769
20.27	12318	8772
20.28	12270	8775
20.29	12380	8778
20.3	12362	8781
20.31	12393	8784
20.32	12351	8787
20.33	12209	8789
20.34	12244	8792
20.35	12298	8795
20.36	12290	8798
20.37	12275	8801
20.38	12350	8803
20.39	12288	8806
20.4	12281	8809
20.41	12326	8812
20.42	12358	8815
20.43	12334	8817
20.44	12347	8820
20.45	12462	8823
20.46	12426	8825
20.47	12376	8828
20.48	12306	8831
20.49	12181	8833
20.5	12203	8836
20.51	12349	8839
20.52	12325	8841
20.53	12296	8844
20.54	12309	8847
20.55	12345	8849
20.56	12417	8852
20.57	12407	8854
20.58	12334	8857
20.59	12272	8860
20.6	12279	8862
20.61	12358	8865
20.62	12510	8867
20.63	12543	8870
20.64	12472	8872
20.65	12472	8875
20.66	12610	8877
20.67	12543	8880
20.68	12509	8882
20.69	12490	8885
20.7	12544	8887
20.71	12476	8890
20.72	12482	8892
20.73	12714	8895
20.74	12597	8897
20.75	12601	8899
20.76	12569	8902
20.77	12593	8904
20.78	12745	8907
20.79	12863	8909
20.8	12873	8911
20.81	12827	8914
20.82	12748	8916
20.83	12854	8918
20.84	12942	8921
20.85	12870	8923
20.86	12828	8925
20.87	12884	8928
20.88	12944	8930
20.89	13063	8932
20.9	13067	8934
20.91	13075	8937
20.92	13104	8939
20.93	13029	8941
20.94	12954	8943
20.95	13063	8945
20.96	13088	8948
20.97	12993	8950
20.98	12957	8952
20.99	13008	8954
21.0	13003	8956
21.01	13000	8958
21.02	13016	8961
21.03	13068	8963
21.04	13024	8965
21.05	12940	8967
21.06	12901	8969
21.07	13088	8971
21.08	13128	8973
21.09	13085	8975
21.1	13111	8977
21.11	13038	8979
21.12	13135	8981
21.13	13142	8983
21.14	13111	8985
21.15	13151	8987
21.16	13113	8989
21.17	13171	8991
21.18	13155	8993
21.19	13120	8995
21.2	13176	8997
21.21	13245	8999
21.22	13316	9000
21.23	13287	9002
21.24	13271	9004
21.25	13232	9006
21.26	13258	9008
21.27	13300	9010
21.28	13328	9012
21.29	13279	9013
21.3	13293	9015
21.31	13352	9017
21.32	13433	9019
21.33	13361	9021
21.34	13324	9022
21.35	13436	9024
21.36	13436	9026
21.37	13498	9027
21.38	13421	9029
21.39	13441	9031
21.4	13414	9032
21.41	13401	9034
21.42	13485	9036
21.43	13537	9037
21.44	13491	9039
21.45	13541	9041
21.46	13540	9042
21.47	13460	9044
21.48	13521	9045
21.49	13584	9047
21.5	13767	9049
21.51	13686	9050
21.52	13557	9052
21.53	13677	9053
21.54	13647	9055
21.55	13629	9056
21.56	13619	9058
21.57	13659	9059
21.58	13624	9061
21.59	13622	9062
21.6	13553	9063
21.61	13571	9065
21.62	13554	9066
21.63	13583	9068
21.64	13590	9069
21.65	13602	9070
21.66	13581	9072
21.67	13629	9073
21.68	13665	9074
21.69	13684	9076
21.7	13858	9077
21.71	13764	9078
21.72	13646	9080
21.73	13616	9081
21.74	13477	9082
21.75	13529	9083
21.76	13590	9084
21.77	13444	9086
21.78	13483	9087
21.79	13561	9088
21.8	13738	9089
21.81	13698	9090
21.82	13675	9092
21.83	13733	9093
21.84	13704	9094
21.85	13733	9095
21.86	13829	9096
21.87	13603	9097
21.88	13420	9098
21.89	13607	9099
21.9	13706	9100
21.91	13601	9101
21.92	13570	9102
21.93	13603	9103
21.94	13646	9104
21.95	13614	9105
21.96	13721	9106
21.97	13559	9107
21.98	13588	9108
21.99	13626	9109
22.0	13563	9110
22.01	13646	9111
22.02	13691	9112
22.03	13673	9112
22.04	13494	9113
22.05	13477	9114
22.06	13356	9115
22.07	13296	9116
22.08	13377	9117
22.09	13421	9117
22.1	13484	9118
22.11	13401	9119
22.12	13349	9120
22.13	13363	9120
22.14	13338	9121
22.15	13169	9122
22.16	13157	9122
22.17	13258	9123
22.18	13306	9124
22.19	13164	9124
22.2	13315	9125
22.21	13318	9126
22.22	13164	9126
22.23	13220	9127
22.24	13251	9127
22.25	13124	9128
22.26	13053	9128
22.27	13093	9129
22.28	13090	9129
22.29	13049	9130
22.3	13126	9130
22.31	13079	9131
22.32	13032	9131
22.33	13020	9132
22.34	13001	9132
22.35	13049	9133
22.36	13031	9133
22.37	12930	9133
22.38	12900	9134
22.39	12945	9134
22.4	12790	9134
22.41	12818	9135
22.42	12966	9135
22.43	12898	9135
22.44	12739	9135
22.45	12696	9136
22.46	12699	9136
22.47	12667	9136
22.48	12683	9136
22.49	12722	9137
22.5	12596	9137
22.51	12593	9137
22.52	12618	9137
22.53	12698	9137
22.54	12549	9137
22.55	12407	9138
22.56	12431	9138
22.57	12499	9138
22.58	12409	9138
22.59	12463	9138
22.6	12471	9138
22.61	12468	9138
22.62	12302	9138
22.63	12200	9138
22.64	12250	9138
22.65	12326	9138
22.66	12330	9138
22.67	12273	9138
22.68	12134	9138
22.69	12156	9137
22.7	12138	9137
22.71	12153	9137
22.72	12134	9137
22.73	12108	9137
22.74	11948	9137
22.75	12016	9136
22.76	12141	9136
22.77	12049	9136
22.78	12014	9136
22.79	11989	9136
22.8	11928	9135
22.81	11857	9135
22.82	11869	9135
22.83	11900	9134
22.84	11795	9134
22.85	11527	9134
22.86	11692	9133
22.87	11702	9133
22.88	11598	9132
22.89	11671	9132
22.9	11573	9132
22.91	11563	9131
22.92	11500	9131
22.93	11595	9130
22.94	11544	9130
22.95	11340	9129
22.96	11394	9129
22.97	11408	9128
22.98	11352	9128
22.99	11270	9127
23.0	11225	9126
23.01	11158	9126
23.02	11383	9125
23.03	11330	9125
23.04	11232	9124
23.05	11162	9123
23.06	11198	9122
23.07	11176	9122
23.08	11084	9121
23.09	10939	9120
23.1	10999	9120
23.11	11079	9119
23.12	11112	9118
23.13	10956	9117
23.14	10904	9116
23.15	10940	9115
23.16	10997	9115
23.17	10917	9114
23.18	10845	9113
23.19	10741	9112
23.2	10618	9111
23.21	10690	9110
23.22	10797	9109
23.23	10622	9108
23.24	10590	9107
23.25	10662	9106
23.26	10660	9105
23.27	10633	9104
23.28	10617	9103
23.29	10628	9102
23.3	10637	9101
23.31	10606	9100
23.32	10482	9099
23.33	10494	9097
23.34	10438	9096
23.35	10428	9095
23.36	10469	9094
23.37	10399	9093
23.38	10351	9091
23.39	10302	9090
23.4	10295	9089
23.41	10208	9088
23.42	10206	9086
23.43	10151	9085
23.44	10180	9084
23.45	10289	9082
23.46	10287	9081
23.47	10126	9080
23.48	10085	9078
23.49	10100	9077
23.5	10036	9075
23.51	10007	9074
23.52	10036	9072
23.53	10030	9071
23.54	10008	9069
23.55	10126	9068
23.56	10012	9066
23.57	9953	9065
23.58	9897	9063
23.59	9880	9062
23.6	9857	9060
23.61	9981	9058
23.62	10000	9057
23.63	9917	9055
23.64	9937	9053
23.65	9911	9052
23.66	9841	9050
23.67	9757	9048
23.68	9748	9046
23.69	9791	9045
23.7	9792	9043
23.71	9740	9041
23.72	9731	9039
23.73	9692	9037
23.74	9598	9035
23.75	9618	9034
23.76	9534	9032
23.77	9565	9030
23.78	9585	9028
23.79	9619	9026
23.8	9548	9024
23.81	9470	9022
23.82	9616	9020
23.83	9583	9018
23.84	9542	9016
23.85	9428	9014
23.86	9315	9012
23.87	9379	9009
23.88	9419	9007
23.89	9395	9005
23.9	9450	9003
23.91	9445	9001
23.92	9323	8999
23.93	9270	8996
23.94	9352	8994
23.95	9251	8992
23.96	9309	8990
23.97	9323	8987
23.98	9286	8985
23.99	9213	8983
24.0	9119	8980
24.01	9228	8978
24.02	9286	8976
24.03	9251	8973
24.04	9228	8971
24.05	9179	8968
24.06	9171	8966
24.07	9013	8963
24.08	9064	8961
24.09	9190	8958
24.1	9249	8956
24.11	9063	8953
24.12	9152	8951
24.13	9195	8948
24.14	9136	8946
24.15	9034	8943
24.16	9041	8940
24.17	9177	8938
24.18	9197	8935
24.19	9169	8932
24.2	9050	8929
24.21	9024	8927
24.22	9099	8924
24.23	9116	8921
24.24	9169	8918
24.25	9206	8916
24.26	9116	8913
24.27	9141	8910
24.28	9176	8907
24.29	9211	8904
24.3	9121	8901
24.31	8982	8898
24.32	9038	8895
24.33	8970	8892
24.34	9060	8889
24.35	9027	8886
24.36	9048	8883
24.37	9098	8880
24.38	8979	8877
24.39	8917	8874
24.4	9032	8871
24.41	8981	8868
24.42	8993	8864
24.43	9023	8861
24.44	8936	8858
24.45	8896	8855
24.46	8920	8852
24.47	8959	8848
24.48	8879	8845
24.49	8872	8842
24.5	8917	8838
24.51	8895	8835
24.52	8927	8832
24.53	8928	8828
24.54	8970	8825
24.55	9012	8822
24.56	8906	8818
24.57	8906	8815
24.58	8945	8811
24.59	8994	8808
24.6	8924	8804
24.61	8905	8801
24.62	8918	8797
24.63	8890	8793
24.64	8931	8790
24.65	8836	8786
24.66	8873	8783
24.67	8967	8779
24.68	8924	8775
24.69	8777	8772
24.7	8821	8768
24.71	8870	8764
24.72	8778	8760
24.73	8770	8757
24.74	8849	8753
24.75	8853	8749
24.76	8874	8745
24.77	8785	8741
24.78	8738	8737
24.79	8845	8733
24.8	8890	8729
24.81	8802	8725
24.82	8769	8721
24.83	8806	8717
24.84	8851	8713
24.85	8897	8709
24.86	8937	8705
24.87	8954	8701
24.88	8883	8697
24.89	8834	8693
24.9	8787	8689
24.91	8771	8685
24.92	8785	8681
24.93	8821	8676
24.94	8917	8672
24.95	8945	8668
24.96	8939	8664
24.97	8875	8659
24.98	8873	8655
24.99	8899	8651
25.0	8881	8646
25.01	8865	8642
25.02	8827	8638
25.03	8892	8633
25.04	8956	8629
25.05	8934	8624
25.06	8940	8620
25.07	8927	8615
25.08	8954	8611
25.09	8908	8606
25.1	9018	8602
25.11	9013	8597
25.12	8906	8592
25.13	8904	8588
25.14	8892	8583
25.15	8866	8578
25.16	8984	8574
25.17	9010	8569
25.18	9013	8564
25.19	9051	8559
25.2	9050	8555
25.21	8961	8550
25.22	8939	8545
25.23	8942	8540
25.24	8978	8535
25.25	8938	8530
25.26	8821	8525
25.27	8844	8521
25.28	8927	8516
25.29	9062	8511
25.3	9104	8506
25.31	9028	8501
25.32	8972	8495
25.33	9013	8490
25.34	9019	8485
25.35	9083	8480
25.36	9135	8475
25.37	9050	8470
25.38	9051	8465
25.39	9038	8459
25.4	8980	8454
25.41	9007	8449
25.42	9045	8444
25.43	9100	8438
25.44	9069	8433
25.45	9065	8428
25.46	9065	8422
25.47	9114	8417
25.48	9190	8412
25.49	9123	8406
25.5	9005	8401
25.51	8995	8395
25.52	9020	8390
25.53	9063	8384
25.54	9128	8379
25.55	9120	8373
25.56	9126	8367
25.57	9130	8362
25.58	9118	8356
25.59	9069	8351
25.6	9103	8345
25.61	9108	8339
25.62	9136	8333
25.63	9119	8328
25.64	9111	8322
25.65	9217	8316
25.66	9228	8310
25.67	9218	8304
25.68	9125	8299
25.69	9120	8293
25.7	9176	8287
25.71	9168	8281
25.72	9151	8275
25.73	9198	8269
25.74	9250	8263
25.75	9326	8257
25.76	9345	8251
25.77	9193	8245
25.78	9161	8239
25.79	9234	8232
25.8	9153	8226
25.81	9061	8220
25.82	9100	8214
25.83	9206	8208
25.84	9237	8202
25.85	9263	8195
25.86	9285	8189
25.87	9320	8183
25.88	9309	8176
25.89	9264	8170
25.9	9247	8164
25.91	9312	8157
25.92	9322	8151
25.93	9246	8144
25.94	9211	8138
25.95	9228	8131
25.96	9245	8125
25.97	9218	8118
25.98	9232	8112
25.99	9171	8105
26.0	9100	8098
26.01	9124	8092
26.02	9225	8085
26.03	9303	8078
26.04	9318	8072
26.05	9221	8065
26.06	9088	8058
26.07	9063	8051
26.08	9165	8045
26.09	9167	8038
26.1	9080	8031
26.11	9134	8024
26.12	9208	8017
26.13	9183	8010
26.14	9138	8003
26.15	9155	7996
26.16	9179	7989
26.17	9119	7982
26.18	9029	7975
26.19	9049	7968
26.2	9133	7961
26.21	9178	7954
26.22	9219	7947
26.23	9178	7940
26.24	9147	7932
26.25	9097	7925
26.26	9036	7918
26.27	9006	7911
26.28	8993	7903
26.29	9107	7896
26.3	9164	7889
26.31	9023	7881
26.32	8955	7874
26.33	9016	7866
26.34	9070	7859
26.35	9011	7851
26.36	8938	7844
26.37	8925	7836
26.38	8917	7829
26.39	8868	7821
26.4	8887	7814
26.41	8942	7806
26.42	8894	7798
26.43	8899	7791
26.44	8935	7783
26.45	8794	7775
26.46	8713	7768
26.47	8702	7760
26.48	8666	7752
26.49	8686	7744
26.5	8754	7736
26.51	8770	7729
26.52	8722	7721
26.53	8715	7713
26.54	8760	7705
26.55	8785	7697
26.56	8780	7689
26.57	8758	7681
26.58	8736	7673
26.59	8653	7665
26.6	8608	7657
26.61	8625	7648
26.62	8646	7640
26.63	8671	7632
26.64	8696	7624
26.65	8666	7616
26.66	8619	7607
26.67	8595	7599
26.68	8562	7591
26.69	8492	7582
26.7	8464	7574
26.71	8425	7566
26.72	8488	7557
26.73	8526	7549
26.74	8479	7540
26.75	8426	7532
26.76	8378	7523
26.77	8331	7515
26.78	8268	7506
26.79	8265	7498
26.8	8313	7489
26.81	8341	7480
26.82	8274	7472
26.83	8204	7463
26.84	8220	7454
26.85	8246	7446
26.86	8288	7437
26.87	8234	7428
26.88	8129	7419
26.89	8066	7410
26.9	8073	7402
26.91	8177	7393
26.92	8145	7384
26.93	8092	7375
26.94	8124	7366
26.95	8058	7357
26.96	7953	7348
26.97	7934	7339
26.98	7909	7330
26.99	7909	7320
27.0	7975	7311
27.01	7998	7302
27.02	7966	7293
27.03	7906	7284
27.04	7838	7274
27.05	7806	7265
27.06	7883	7256
27.07	7912	7247
27.08	7852	7237
27.09	7845	7228
27.1	7792	7218
27.11	7722	7209
27.12	7711	7200
27.13	7731	7190
27.14	7767	7181
27.15	7728	7171
27.16	7650	7161
27.17	7608	7152
27.18	7579	7142
27.19	7567	7133
27.2	7597	7123
27.21	7637	7113
27.22	7584	7103
27.23	7516	7094
27.24	7550	7084
27.25	7530	7074
27.26	7440	7064
27.27	7355	7054
27.28	7345	7045
27.29	7398	7035
27.3	7416	7025
27.31	7473	7015
27.32	7458	7005
27.33	7318	6995
27.34	7274	6985
27.35	7304	6975
27.36	7273	6964
27.37	7259	6954
27.38	7251	6944
27.39	7239	6934
27.4	7249	6924
27.41	7207	6913
27.42	7178	6903
27.43	7190	6893
27.44	7157	6883
27.45	7113	6872
27.46	7081	6862
27.47	7087	6851
27.48	7124	6841
27.49	7075	6830
27.5	6966	6820
27.51	6960	6809
27.52	7036	6799
27.53	7026	6788
27.54	6982	6778
27.55	6944	6767
27.56	6926	6756
27.57	6955	6746
27.58	6966	6735
27.59	6957	6724
27.6	6894	6713
27.61	6839	6703
27.62	6824	6692
27.63	6858	6681
27.64	6856	6670
27.65	6768	6659
27.66	6742	6648
27.67	6819	6637
27.68	6839	6626
27.69	6766	6615
27.7	6678	6604
27.71	6657	6593
27.72	6697	6582
27.73	6668	6571
27.74	6659	6560
27.75	6673	6548
27.76	6631	6537
27.77	6655	6526
27.78	6660	6515
27.79	6626	6503
27.8	6631	6492
27.81	6633	6481
27.82	6578	6469
27.83	6547	6458
27.84	6533	6446
27.85	6524	6435
27.86	6530	6423
27.87	6497	6412
27.88	6496	6400
27.89	6458	6389
27.9	6393	6377
27.91	6345	6365
27.92	6345	6354
27.93	6417	6342
27.94	6441	6330
27.95	6388	6319
27.96	6315	6307
27.97	6266	6295
27.98	6275	6283
27.99	6291	6271
28.0	6346	6259
28.01	6329	6247
28.02	6244	6235
28.03	6215	6223
28.04	6279	6211
28.05	6287	6199
28.06	6269	6187
28.07	6188	6175
28.08	6168	6163
28.09	6213	6151
28.1	6184	6139
28.11	6155	6127
28.12	6167	6115
28.13	6126	6103
28.14	6114	6090
28.15	6144	6078
28.16	6106	6066
28.17	6086	6054
28.18	6125	6042
28.19	6101	6030
28.2	6064	6018
28.21	6048	6005
28.22	6077	5993
28.23	6091	5981
28.24	6089	5969
28.25	6003	5957
28.26	5939	5945
28.27	5916	5933
28.28	5896	5920
28.29	5898	5908
28.3	5895	5896
28.31	5933	5884
28.32	5955	5872
28.33	5920	5860
28.34	5970	5848
28.35	5929	5836
28.36	5832	5824
28.37	5833	5812
28.38	5833	5800
28.39	5777	5788
28.4	5819	5776
28.41	5884	5765
28.42	5825	5753
28.43	5783	5741
28.44	5738	5729
28.45	5778	5718
28.46	5801	5706
28.47	5741	5694
28.48	5695	5683
28.49	5725	5671
28.5	5709	5659
28.51	5608	5648
28.52	5549	5637
28.53	5639	5625
28.54	5738	5614
28.55	5709	5602
28.56	5689	5591
28.57	5684	5580
28.58	5662	5569
28.59	5653	5558
28.6	5612	5546
28.61	5644	5535
28.62	5664	5524
28.63	5664	5513
28.64	5628	5502
28.65	5599	5492
28.66	5606	5481
28.67	5618	5470
28.68	5618	5459
28.69	5545	5448
28.7	5466	5438
28.71	5528	5427
28.72	5656	5417
28.73	5618	5406
28.74	5545	5395
28.75	5532	5385
28.76	5525	5375
28.77	5464	5364
28.78	5490	5354
28.79	5440	5344
28.8	5406	5333
28.81	5433	5323
28.82	5431	5313
28.83	5388	5303
28.84	5333	5293
28.85	5334	5283
28.86	5388	5273
28.87	5376	5263
28.88	5320	5253
28.89	5255	5243
28.9	5264	5233
28.91	5313	5223
28.92	5252	5213
28.93	5240	5203
28.94	5244	5194
28.95	5242	5184
28.96	5225	5174
28.97	5266	5165
28.98	5295	5155
28.99	5284	5146
29.0	5244	5136
29.01	5250	5127
29.02	5295	5118
29.03	5287	5108
29.04	5213	5099
29.05	5158	5090
29.06	5179	5080
29.07	5213	5071
29.08	5232	5062
29.09	5234	5053
29.1	5168	5044
29.11	5163	5035
29.12	5187	5026
29.13	5182	5017
29.14	5193	5008
29.15	5165	4999
29.16	5148	4990
29.17	5117	4981
29.18	5133	4972
29.19	5080	4963
29.2	5057	4955
29.21	5063	4946
29.22	5124	4937
29.23	5129	4929
29.24	5100	4920
29.25	5028	4912
29.26	5072	4903
29.27	5052	4895
29.28	5010	4886
29.29	5013	4878
29.3	4989	4869
29.31	5016	4861
29.32	5060	4853
29.33	5085	4844
29.34	5120	4836
29.35	5074	4828
29.36	4999	4820
29.37	4980	4812
29.38	4944	4803
29.39	4978	4795
29.4	4929	4787
29.41	4909	4779
29.42	4913	4771
29.43	4870	4763
29.44	4875	4755
29.45	4969	4748
29.46	4862	4740
29.47	4819	4732
29.48	4838	4724
29.49	4857	4716
29.5	4904	4709
29.51	4823	4701
29.52	4750	4693
29.53	4794	4686
29.54	4790	4678
29.55	4789	4671
29.56	4792	4663
29.57	4735	4656
29.58	4764	4648
29.59	4806	4641
29.6	4691	4633
29.61	4645	4626
29.62	4688	4619
29.63	4666	4611
29.64	4717	4604
29.65	4669	4597
29.66	4672	4590
29.67	4686	4582
29.68	4700	4575
29.69	4744	4568
29.7	4724	4561
29.71	4752	4554
29.72	4674	4547
29.73	4649	4540
29.74	4671	4533
29.75	4682	4526
29.76	4602	4519
29.77	4554	4512
29.78	4577	4505
29.79	4636	4498
29.8	4581	4492
29.81	4532	4485
29.82	4527	4478
29.83	4563	4471
29.84	4598	4465
29.85	4534	4458
29.86	4530	4451
29.87	4570	4445
29.88	4509	4438
29.89	4456	4432
29.9	4481	4425
29.91	4454	4419
29.92	4479	4412
29.93	4450	4406
29.94	4398	4399
29.95	4430	4393
29.96	4453	4387
29.97	4485	4380
29.98	4535	4374
29.99	4515	4368
30.0	4430	4361
30.01	4394	4355
30.02	4413	4349
30.03	4367	4343
30.04	4428	4337
30.05	4481	4330
30.06	4401	4324
30.07	4320	4318
30.08	4300	4312
30.09	4379	4306
30.1	4426	4300
30.11	4363	4294
30.12	4339	4288
30.13	4342	4282
30.14	4352	4276
30.15	4363	4270
30.16	4323	4265
30.17	4344	4259
30.18	4346	4253
30.19	4296	4247
30.2	4289	4241
30.21	4247	4236
30.22	4288	4230
30.23	4271	4224
30.24	4321	4219
30.25	4304	4213
30.26	4339	4207
30.27	4234	4202
30.28	4194	4196
30.29	4252	4191
30.3	4257	4185
30.31	4220	4180
30.32	4326	4174
30.33	4297	4169
30.34	4245	4163
30.35	4266	4158
30.36	4240	4152
30.37	4225	4147
30.38	4228	4142
30.39	4234	4136
30.4	4213	4131
30.41	4204	4126
30.42	4182	4120
30.43	4175	4115
30.44	4153	4110
30.45	4149	4105
30.46	4189	4100
30.47	4215	4094
30.48	4129	4089
30.49	4138	4084
30.5	4112	4079
30.51	4110	4074
30.52	4158	4069
30.53	4179	4064
30.54	4191	4059
30.55	4136	4054
30.56	4061	4049
30.57	4103	4044
30.58	4134	4039
30.59	4142	4034
30.6	4166	4029
30.61	4177	4024
30.62	4173	4019
30.63	4122	4014
30.64	4105	4010
30.65	4047	4005
30.66	4040	4000
30.67	4081	3995
30.68	4104	3990
30.69	4061	3986
30.7	4185	3981
30.71	4141	3976
30.72	4013	3971
30.73	4044	3967
30.74	4138	3962
30.75	4082	3957
30.76	4032	3953
30.77	3995	3948
30.78	4034	3944
30.79	4082	3939
30.8	4072	3935
30.81	3997	3930
30.82	4045	3925
30.83	4047	3921
30.84	4034	3916
30.85	3961	3912
30.86	3958	3907
30.87	3900	3903
30.88	3935	3899
30.89	3973	3894
30.9	3886	3890
30.91	3966	3885
30.92	3992	3881
30.93	3978	3877
30.94	3972	3872
30.95	3950	3868
30.96	3916	3864
30.97	3942	3859
30.98	3913	3855
30.99	3944	3851
31.0	3974	3847
31.01	3891	3842
31.02	3899	3838
31.03	3920	3834
31.04	3863	3830
31.05	3735	3825
31.06	3851	3821
31.07	3877	3817
31.08	3919	3813
31.09	3837	3809
31.1	3794	3805
31.11	3749	3801
31.12	3832	3796
31.13	3758	3792
31.14	3829	3788
31.15	3804	3784
31.16	3793	3780
31.17	3791	3776
31.18	3742	3772
31.19	3774	3768
31.2	3774	3764
31.21	3796	3760
31.22	3783	3756
31.23	3807	3752
31.24	3798	3748
31.25	3792	3744
31.26	3731	3740
31.27	3796	3737
31.28	3814	3733
31.29	3803	3729
31.3	3713	3725
31.31	3780	3721
31.32	3808	3717
31.33	3784	3713
31.34	3795	3710
31.35	3784	3706
31.36	3688	3702
31.37	3732	3698
31.38	3771	3694
31.39	3750	3691
31.4	3733	3687
31.41	3718	3683
31.42	3702	3679
31.43	3605	3676
31.44	3644	3672
31.45	3711	3668
31.46	3699	3665
31.47	3777	3661
31.48	3696	3657
31.49	3713	3654
31.5	3630	3650
31.51	3631	3647
31.52	3709	3643
31.53	3693	3639
31.54	3631	3636
31.55	3690	3632
31.56	3618	3629
31.57	3586	3625
31.58	3654	3622
31.59	3647	3618
31.6	3651	3615
31.61	3614	3611
31.62	3662	3608
31.63	3686	3604
31.64	3669	3601
31.65	3643	3597
31.66	3646	3594
31.67	3638	3590
31.68	3602	3587
31.69	3650	3584
31.7	3585	3580
31.71	3581	3577
31.72	3578	3573
31.73	3658	3570
31.74	3657	3567
31.75	3618	3563
31.76	3628	3560
31.77	3611	3557
31.78	3600	3553
31.79	3586	3550
31.8	3611	3547
31.81	3553	3544
31.82	3577	3540
31.83	3604	3537
31.84	3604	3534
31.85	3569	3531
31.86	3523	3527
31.87	3523	3524
31.88	3574	3521
31.89	3518	3518
31.9	3534	3515
31.91	3526	3511
31.92	3530	3508
31.93	3473	3505
31.94	3432	3502
31.95	3397	3499
31.96	3475	3496
31.97	3462	3493
31.98	3451	3490
31.99	3476	3486
32.0	3549	3483
32.01	3573	3480
32.02	3406	3477
32.03	3345	3474
32.04	3418	3471
32.05	3455	3468
32.06	3535	3465
32.07	3526	3462
32.08	3545	3459
32.09	3459	3456
32.1	3434	3453
32.11	3446	3450
32.12	3433	3447
32.13	3427	3444
32.14	3465	3441
32.15	3393	3439
32.16	3508	3436
32.17	3497	3433
32.18	3406	3430
32.19	3377	3427
32.2	3437	3424
32.21	3484	3421
32.22	3423	3418
32.23	3445	3416
32.24	3390	3413
32.25	3388	3410
32.26	3450	3407
32.27	3431	3404
32.28	3339	3401
32.29	3386	3399
32.3	3430	3396
32.31	3375	3393
32.32	3408	3390
32.33	3420	3388
32.34	3371	3385
32.35	3430	3382
32.36	3386	3379
32.37	3360	3377
32.38	3384	3374
32.39	3411	3371
32.4	3373	3369
32.41	3342	3366
32.42	3276	3363
32.43	3302	3361
32.44	3382	3358
32.45	3412	3355
32.46	3389	3353
32.47	3428	3350
32.48	3387	3347
32.49	3407	3345
32.5	3368	3342
32.51	3346	3340
32.52	3378	3337
32.53	3364	3335
32.54	3283	3332
32.55	3305	3329
32.56	3345	3327
32.57	3307	3324
32.58	3340	3322
32.59	3279	3319
32.6	3303	3317
32.61	3306	3314
32.62	3394	3312
32.63	3301	3309
32.64	3295	3307
32.65	3366	3304
32.66	3342	3302
32.67	3292	3299
32.68	3323	3297
32.69	3285	3295
32.7	3305	3292
32.71	3282	3290
32.72	3266	3287
32.73	3279	3285
32.74	3290	3283
32.75	3314	3280
32.76	3273	3278
32.77	3282	3275
32.78	3240	3273
32.79	3246	3271
32.8	3246	3268
32.81	3264	3266
32.82	3237	3264
32.83	3194	3261
32.84	3267	3259
32.85	3205	3257
32.86	3244	3254
32.87	3281	3252
32.88	3247	3250
32.89	3282	3248
32.9	3264	3245
32.91	3260	3243
32.92	3202	3241
32.93	3180	3238
32.94	3161	3236
32.95	3199	3234
32.96	3254	3232
32.97	3213	3230
32.98	3194	3227
32.99	3214	3225
33.0	3223	3223
33.01	3220	3221
33.02	3182	3219
33.03	3234	3216
33.04	3211	3214
33.05	3162	3212
33.06	3219	3210
33.07	3235	3208
33.08	3175	3206
33.09	3186	3203
33.1	3134	3201
33.11	3098	3199
33.12	3142	3197
33.13	3176	3195
33.14	3152	3193
33.15	3242	3191
33.16	3245	3189
33.17	3192	3187
33.18	3169	3185
33.19	3231	3182
33.2	3198	3180
33.21	3209	3178
33.22	3158	3176
33.23	3214	3174
33.24	3178	3172
33.25	3177	3170
33.26	3115	3168
33.27	3165	3166
33.28	3181	3164
33.29	3118	3162
33.3	3053	3160
33.31	3137	3158
33.32	3190	3156
33.33	3187	3154
33.34	3175	3152
33.35	3074	3150
33.36	3130	3148
33.37	3088	3146
33.38	3074	3144
33.39	3091	3142
33.4	3126	3140
33.41	3101	3139
33.42	3123	3137
33.43	3175	3135
33.44	3138	3133
33.45	3155	3131
33.46	3084	3129
33.47	3094	3127
33.48	3099	3125
33.49	3097	3123
33.5	3115	3121
33.51	3098	3119
33.52	3073	3118
33.53	3074	3116
33.54	3104	3114
33.55	3135	3112
33.56	3131	3110
33.57	3042	3108
33.58	2998	3106
33.59	3043	3105
33.6	3119	3103
33.61	3105	3101
33.62	3057	3099
33.63	3131	3097
33.64	3096	3096
33.65	3033	3094
33.66	3074	3092
33.67	3071	3090
33.68	3059	3088
33.69	3039	3087
33.7	3067	3085
33.71	3051	3083
33.72	2994	3081
33.73	3031	3080
33.74	3117	3078
33.75	3061	3076
33.76	3022	3074
33.77	3069	3073
33.78	3043	3071
33.79	3071	3069
33.8	3082	3067
33.81	2997	3066
33.82	2945	3064
33.83	2954	3062
33.84	2981	3060
33.85	3024	3059
33.86	3069	3057
33.87	3019	3055
33.88	2986	3054
33.89	3010	3052
33.9	3041	3050
33.91	3014	3049
33.92	3012	3047
33.93	2978	3045
33.94	2926	3044
33.95	2998	3042
33.96	3078	3040
33.97	3083	3039
33.98	3014	3037
33.99	2991	3035
34.0	2983	3034
34.01	2978	3032
34.02	3020	3030
34.03	3039	3029
34.04	2979	3027
34.05	2944	3025
34.06	2922	3024
34.07	2951	3022
34.08	2975	3021
34.09	2999	3019
34.1	3034	3017
34.11	2967	3016
34.12	2972	3014
34.13	2978	3013
34.14	2994	3011
34.15	3027	3009
34.16	3032	3008
34.17	3022	3006
34.18	3018	3005
34.19	2985	3003
34.2	2998	3002
34.21	3031	3000
34.22	2997	2998
34.23	2988	2997
34.24	2963	2995
34.25	2939	2994
34.26	2985	2992
34.27	3011	2991
34.28	2964	2989
34.29	2935	2988
34.3	2922	2986
34.31	2915	2984
34.32	2897	2983
34.33	2900	2981
34.34	2868	2980
34.35	2876	2978
34.36	2928	2977
34.37	2931	2975
34.38	2941	2974
34.39	2962	2972
34.4	2987	2971
34.41	3023	2969
34.42	2979	2968
34.43	2973	2966
34.44	2943	2965
34.45	2945	2963
34.46	2952	2962
34.47	2939	2960
34.48	2971	2959
34.49	2937	2957
34.5	2925	2956
34.51	2972	2954
34.52	2956	2953
34.53	2928	2951
34.54	2950	2950
34.55	2936	2948
34.56	2922	2947
34.57	2873	2945
34.58	2868	2944
34.59	2882	2943
34.6	2861	2941
34.61	2898	2940
34.62	2959	2938
34.63	2995	2937
34.64	2968	2935
34.65	2953	2934
34.66	2935	2932
34.67	2939	2931
34.68	2950	2929
34.69	2918	2928
34.7	2916	2927
34.71	2932	2925
34.72	2916	2924
34.73	2920	2922
34.74	2943	2921
34.75	2945	2919
34.76	2980	2918
34.77	2957	2916
34.78	2944	2915
34.79	2963	2914
34.8	2959	2912
34.81	2933	2911
34.82	2927	2909
34.83	2924	2908
34.84	2939	2906
34.85	2938	2905
34.86	2955	2904
34.87	2950	2902
34.88	2961	2901
34.89	2927	2899
34.9	2886	2898
34.91	2896	2897
34.92	2888	2895
34.93	2914	2894
34.94	2904	2892
34.95	2844	2891
34.96	2903	2890
34.97	2950	2888
34.98	2951	2887
34.99	2922	2885
35.0	2919	2884
35.01	2922	2882
35.02	2913	2881
35.03	2916	2880
35.04	2923	2878
35.05	2941	2877
35.06	2993	2875
35.07	3000	2874
35.08	2954	2873
35.09	2935	2871
35.1	2933	2870
35.11	2972	2868
35.12	2949	2867
35.13	2907	2866
35.14	2888	2864
35.15	2872	2863
35.16	2890	2862
35.17	2910	2860
35.18	2868	2859
35.19	2890	2857
35.2	2907	2856
35.21	2895	2855
35.22	2916	2853
35.23	2898	2852
35.24	2928	2850
35.25	2961	2849
35.26	2944	2848
35.27	2928	2846
35.28	2922	2845
35.29	2919	2844
35.3	2951	2842
35.31	2937	2841
35.32	2911	2839
35.33	2906	2838
35.34	2924	2837
35.35	2923	2835
35.36	2888	2834
35.37	2857	2833
35.38	2894	2831
35.39	2929	2830
35.4	2923	2828
35.41	2910	2827
35.42	2884	2826
35.43	2884	2824
35.44	2878	2823
35.45	2866	2822
35.46	2917	2820
35.47	2940	2819
35.48	2908	2818
35.49	2872	2816
35.5	2872	2815
35.51	2901	2814
35.52	2915	2812
35.53	2917	2811
35.54	2897	2809
35.55	2868	2808
35.56	2864	2807
35.57	2931	2805
35.58	2954	2804
35.59	2958	2803
35.6	2981	2801
35.61	2967	2800
35.62	2953	2799
35.63	2961	2797
35.64	2936	2796
35.65	2913	2795
35.66	2936	2793
35.67	2967	2792
35.68	2957	2791
35.69	2928	2789
35.7	2890	2788
35.71	2864	2787
35.72	2875	2785
35.73	2915	2784
35.74	2917	2783
35.75	2961	2781
35.76	2957	2780
35.77	2926	2779
35.78	2926	2777
35.79	2937	2776
35.8	2929	2775
35.81	2884	2773
35.82	2837	2772
35.83	2855	2771
35.84	2895	2769
35.85	2922	2768
35.86	2925	2767
35.87	2881	2765
35.88	2898	2764
35.89	2929	2763
35.9	2919	2761
35.91	2941	2760
35.92	2948	2759
35.93	2923	2758
35.94	2895	2756
35.95	2885	2755
35.96	2881	2754
35.97	2870	2752
35.98	2883	2751
35.99	2892	2750
36.0	2907	2748
36.01	2898	2747
36.02	2873	2746
36.03	2851	2744
36.04	2871	2743
36.05	2916	2742
36.06	2915	2741
36.07	2869	2739
36.08	2844	2738
36.09	2852	2737
36.1	2862	2735
36.11	2870	2734
36.12	2892	2733
36.13	2886	2732
36.14	2898	2730
36.15	2927	2729
36.16	2866	2728
36.17	2846	2726
36.18	2879	2725
36.19	2873	2724
36.2	2842	2723
36.21	2843	2721
36.22	2877	2720
36.23	2887	2719
36.24	2909	2717
36.25	2904	2716
36.26	2910	2715
36.27	2919	2714
36.28	2862	2712
36.29	2828	2711
36.3	2838	2710
36.31	2843	2708
36.32	2833	2707
36.33	2831	2706
36.34	2857	2705
36.35	2860	2703
36.36	2865	2702
36.37	2879	2701
36.38	2844	2700
36.39	2813	2698
36.4	2817	2697
36.41	2822	2696
36.42	2839	2695
36.43	2821	2693
36.44	2788	2692
36.45	2828	2691
36.46	2896	2690
36.47	2901	2688
36.48	2865	2687
36.49	2842	2686
36.5	2846	2684
36.51	2888	2683
36.52	2892	2682
36.53	2837	2681
36.54	2835	2679
36.55	2845	2678
36.56	2818	2677
36.57	2775	2676
36.58	2780	2675
36.59	2874	2673
36.6	2900	2672
36.61	2843	2671
36.62	2823	2670
36.63	2817	2668
36.64	2825	2667
36.65	2845	2666
36.66	2842	2665
36.67	2847	2663
36.68	2829	2662
36.69	2795	2661
36.7	2804	2660
36.71	2818	2658
36.72	2800	2657
36.73	2817	2656
36.74	2816	2655
36.75	2774	2654
36.76	2783	2652
36.77	2815	2651
36.78	2808	2650
36.79	2824	2649
36.8	2862	2647
36.81	2887	2646
36.82	2924	2645
36.83	2897	2644
36.84	2849	2643
36.85	2898	2641
36.86	2924	2640
36.87	2916	2639
36.88	2989	2638
36.89	3062	2637
36.9	3086	2635
36.91	3133	2634
36.92	3214	2633
36.93	3298	2632
36.94	3351	2631
36.95	3420	2629
36.96	3544	2628
36.97	3654	2627
36.98	3763	2626
36.99	3879	2625
37.0	3984	2623
37.01	4122	2622
37.02	4281	2621
37.03	4382	2620
37.04	4480	2619
37.05	4617	2617
37.06	4645	2616
37.07	4679	2615
37.08	4716	2614
37.09	4687	2613
37.1	4638	2611
37.11	4515	2610
37.12	4374	2609
37.13	4273	2608
37.14	4190	2607
37.15	4085	2605
37.16	3966	2604
37.17	3884	2603
37.18	3754	2602
37.19	3578	2601
37.2	3517	2600
37.21	3496	2598
37.22	3370	2597
37.23	3232	2596
37.24	3158	2595
37.25	3094	2594
37.26	3013	2593
37.27	2973	2591
37.28	2888	2590
37.29	2839	2589
37.3	2850	2588
37.31	2812	2587
37.32	2823	2586
37.33	2821	2584
37.34	2768	2583
37.35	2723	2582
37.36	2703	2581
37.37	2665	2580
37.38	2617	2579
37.39	2601	2578
37.4	2598	2576
37.41	2607	2575
37.42	2609	2574
37.43	2644	2573
37.44	2712	2572
37.45	2682	2571
37.46	2641	2569
37.47	2638	2568
37.48	2658	2567
37.49	2642	2566
37.5	2640	2565
37.51	2601	2564
37.52	2571	2563
37.53	2581	2562
37.54	2563	2560
37.55	2586	2559
37.56	2619	2558
37.57	2625	2557
37.58	2611	2556
37.59	2591	2555
37.6	2631	2554
37.61	2654	2552
37.62	2654	2551
37.63	2612	2550
37.64	2575	2549
37.65	2590	2548
37.66	2597	2547
37.67	2621	2546
37.68	2610	2545
37.69	2564	2544
37.7	2592	2542
37.71	2616	2541
37.72	2623	2540
37.73	2618	2539
37.74	2582	2538
37.75	2553	2537
37.76	2585	2536
37.77	2613	2535
37.78	2592	2534
37.79	2547	2532
37.8	2518	2531
37.81	2541	2530
37.82	2541	2529
37.83	2524	2528
37.84	2543	2527
37.85	2571	2526
37.86	2564	2525
37.87	2535	2524
37.88	2552	2523
37.89	2571	2521
37.9	2597	2520
37.91	2626	2519
37.92	2617	2518
37.93	2591	2517
37.94	2607	2516
37.95	2675	2515
37.96	2677	2514
37.97	2643	2513
37.98	2615	2512
37.99	2605	2511
38.0	2596	2509
38.01	2597	2508
38.02	2588	2507
38.03	2615	2506
38.04	2642	2505
38.05	2603	2504
38.06	2582	2503
38.07	2565	2502
38.08	2596	2501
38.09	2589	2500
38.1	2585	2499
38.11	2586	2498
38.12	2563	2497
38.13	2541	2496
38.14	2536	2494
38.15	2554	2493
38.16	2515	2492
38.17	2501	2491
38.18	2531	2490
38.19	2487	2489
38.2	2471	2488
38.21	2531	2487
38.22	2531	2486
38.23	2489	2485
38.24	2489	2484
38.25	2513	2483
38.26	2490	2482
38.27	2477	2481
38.28	2464	2480
38.29	2452	2479
38.3	2422	2478
38.31	2401	2477
38.32	2428	2476
38.33	2423	2474
38.34	2437	2473
38.35	2470	2472
38.36	2486	2471
38.37	2482	2470
38.38	2467	2469
38.39	2492	2468
38.4	2488	2467
38.41	2459	2466
38.42	2457	2465
38.43	2460	2464
38.44	2461	2463
38.45	2480	2462
38.46	2468	2461
38.47	2448	2460
38.48	2457	2459
38.49	2454	2458
38.5	2488	2457
38.51	2521	2456
38.52	2513	2455
38.53	2516	2454
38.54	2556	2453
38.55	2526	2452
38.56	2510	2451
38.57	2518	2450
38.58	2485	2449
38.59	2541	2448
38.6	2564	2447
38.61	2572	2446
38.62	2591	2445
38.63	2559	2444
38.64	2526	2443
38.65	2552	2442
38.66	2594	2441
38.67	2656	2440
38.68	2651	2439
38.69	2649	2438
38.7	2644	2437
38.71	2647	2436
38.72	2684	2435
38.73	2648	2434
38.74	2677	2433
38.75	2692	2432
38.76	2649	2431
38.77	2634	2430
38.78	2640	2429
38.79	2618	2428
38.8	2583	2427
38.81	2565	2426
38.82	2518	2425
38.83	2520	2424
38.84	2534	2423
38.85	2521	2422
38.86	2474	2421
38.87	2462	2420
38.88	2516	2419
38.89	2477	2418
38.9	2441	2417
38.91	2415	2416
38.92	2433	2415
38.93	2416	2414
38.94	2426	2413
38.95	2403	2412
38.96	2402	2411
38.97	2400	2411
38.98	2415	2410
38.99	2411	2409
39.0	2394	2408
39.01	2401	2407
39.02	2383	2406
39.03	2365	2405
39.04	2388	2404
39.05	2391	2403
39.06	2352	2402
39.07	2357	2401
39.08	2438	2400
39.09	2403	2399
39.1	2352	2398
39.11	2365	2397
39.12	2385	2396
39.13	2401	2395
39.14	2438	2394
39.15	2416	2393
39.16	2422	2393
39.17	2387	2392
39.18	2383	2391
39.19	2301	2390
39.2	2348	2389
39.21	2419	2388
39.22	2389	2387
39.23	2385	2386
39.24	2378	2385
39.25	2374	2384
39.26	2361	2383
39.27	2358	2382
39.28	2362	2381
39.29	2377	2380
39.3	2424	2380
39.31	2369	2379
39.32	2307	2378
39.33	2303	2377
39.34	2317	2376
39.35	2342	2375
39.36	2335	2374
39.37	2313	2373
39.38	2389	2372
39.39	2361	2371
39.4	2338	2370
39.41	2310	2370
39.42	2282	2369
39.43	2311	2368
39.44	2399	2367
39.45	2401	2366
39.46	2339	2365
39.47	2316	2364
39.48	2288	2363
39.49	2316	2362
39.5	2324	2361
39.51	2325	2361
39.52	2324	2360
39.53	2312	2359
39.54	2307	2358
39.55	2321	2357
39.56	2349	2356
39.57	2341	2355
39.58	2364	2354
39.59	2384	2354
39.6	2377	2353
39.61	2372	2352
39.62	2366	2351
39.63	2372	2350
39.64	2348	2349
39.65	2342	2348
39.66	2325	2347
39.67	2324	2347
39.68	2353	2346
39.69	2338	2345
39.7	2308	2344
39.71	2316	2343
39.72	2324	2342
39.73	2317	2341
39.74	2326	2341
39.75	2332	2340
39.76	2354	2339
39.77	2367	2338
39.78	2372	2337
39.79	2358	2336
39.8	2330	2335
39.81	2346	2335
39.82	2325	2334
39.83	2336	2333
39.84	2314	2332
39.85	2345	2331
39.86	2357	2330
39.87	2341	2329
39.88	2333	2329
39.89	2311	2328
39.9	2323	2327
39.91	2304	2326
39.92	2294	2325
39.93	2338	2324
39.94	2314	2324
39.95	2349	2323
39.96	2349	2322
39.97	2332	2321
39.98	2398	2320
39.99	2342	2319
40.0	2310	2319
40.01	2292	2318
40.02	2326	2317
40.03	2308	2316
40.04	2296	2315
40.05	2333	2315
40.06	2311	2314
40.07	2325	2313
40.08	2340	2312
40.09	2374	2311
40.1	2356	2310
40.11	2292	2310
40.12	2309	2309
40.13	2346	2308
40.14	2360	2307
40.15	2364	2306
40.16	2358	2306
40.17	2322	2305
40.18	2344	2304
40.19	2331	2303
40.2	2300	2302
40.21	2279	2302
40.22	2272	2301
40.23	2297	2300
40.24	2328	2299
40.25	2357	2298
40.26	2380	2298
40.27	2354	2297
40.28	2361	2296
40.29	2310	2295
40.3	2338	2295
40.31	2319	2294
40.32	2264	2293
40.33	2273	2292
40.34	2327	2291
40.35	2359	2291
40.36	2343	2290
40.37	2309	2289
40.38	2336	2288
40.39	2321	2288
40.4	2289	2287
40.41	2306	2286
40.42	2359	2285
40.43	2373	2285
40.44	2298	2284
40.45	2294	2283
40.46	2306	2282
40.47	2374	2281
40.48	2338	2281
40.49	2250	2280
40.5	2254	2279
40.51	2249	2278
40.52	2322	2278
40.53	2336	2277
40.54	2307	2276
40.55	2252	2275
40.56	2252	2275
40.57	2293	2274
40.58	2369	2273
40.59	2302	2272
40.6	2296	2272
40.61	2331	2271
40.62	2305	2270
40.63	2351	2270
40.64	2317	2269
40.65	2272	2268
40.66	2303	2267
40.67	2252	2267
40.68	2256	2266
40.69	2274	2265
40.7	2264	2264
40.71	2293	2264
40.72	2280	2263
40.73	2291	2262
40.74	2314	2262
40.75	2330	2261
40.76	2300	2260
40.77	2304	2259
40.78	2272	2259
40.79	2324	2258
40.8	2351	2257
40.81	2373	2257
40.82	2348	2256
40.83	2255	2255
40.84	2267	2254
40.85	2306	2254
40.86	2371	2253
40.87	2341	2252
40.88	2323	2252
40.89	2271	2251
40.9	2268	2250
40.91	2277	2249
40.92	2308	2249
40.93	2321	2248
40.94	2304	2247
40.95	2282	2247
40.96	2307	2246
40.97	2332	2245
40.98	2295	2245
40.99	2325	2244
41.0	2321	2243
41.01	2261	2243
41.02	2245	2242
41.03	2220	2241
41.04	2249	2241
41.05	2324	2240
41.06	2309	2239
41.07	2256	2239
41.08	2296	2238
41.09	2267	2237
41.1	2209	2237
41.11	2226	2236
41.12	2227	2235
41.13	2183	2235
41.14	2265	2234
41.15	2332	2233
41.16	2302	2233
41.17	2265	2232
41.18	2288	2231
41.19	2284	2231
41.2	2291	2230
41.21	2318	2229
41.22	2294	2229
41.23	2277	2228
41.24	2200	2227
41.25	2245	2227
41.26	2269	2226
41.27	2244	2225
41.28	2266	2225
41.29	2386	2224
41.3	2332	2223
41.31	2277	2223
41.32	2348	2222
41.33	2337	2222
41.34	2338	2221
41.35	2340	2220
41.36	2228	2220
41.37	2282	2219
41.38	2308	2218
41.39	2283	2218
41.4	2270	2217
41.41	2282	2216
41.42	2297	2216
41.43	2283	2215
41.44	2312	2215
41.45	2306	2214
41.46	2279	2213
41.47	2256	2213
41.48	2263	2212
41.49	2224	2212
41.5	2303	2211
41.51	2282	2210
41.52	2337	2210
41.53	2374	2209
41.54	2310	2208
41.55	2273	2208
41.56	2241	2207
41.57	2261	2207
41.58	2235	2206
41.59	2214	2205
41.6	2235	2205
41.61	2285	2204
41.62	2291	2204
41.63	2292	2203
41.64	2276	2202
41.65	2308	2202
41.66	2249	2201
41.67	2221	2201
41.68	2199	2200
41.69	2272	2200
41.7	2298	2199
41.71	2261	2198
41.72	2290	2198
41.73	2302	2197
41.74	2262	2197
41.75	2276	2196
41.76	2272	2195
41.77	2286	2195
41.78	2279	2194
41.79	2299	2194
41.8	2257	2193
41.81	2255	2193
41.82	2322	2192
41.83	2278	2191
41.84	2203	2191
41.85	2276	2190
41.86	2269	2190
41.87	2203	2189
41.88	2291	2189
41.89	2222	2188
41.9	2250	2187
41.91	2264	2187
41.92	2287	2186
41.93	2257	2186
41.94	2215	2185
41.95	2195	2185
41.96	2245	2184
41.97	2277	2184
41.98	2236	2183
41.99	2261	2183
42.0	2271	2182
42.01	2284	2181
42.02	2239	2181
42.03	2241	2180
42.04	2287	2180
42.05	2250	2179
42.06	2258	2179
42.07	2339	2178
42.08	2340	2178
42.09	2264	2177
42.1	2295	2177
42.11	2257	2176
42.12	2253	2175
42.13	2219	2175
42.14	2240	2174
42.15	2244	2174
42.16	2232	2173
42.17	2245	2173
42.18	2264	2172
42.19	2209	2172
42.2	2202	2171
42.21	2271	2171
42.22	2302	2170
42.23	2256	2170
42.24	2242	2169
42.25	2232	2169
42.26	2244	2168
42.27	2232	2168
42.28	2267	2167
42.29	2260	2167
42.3	2274	2166
42.31	2300	2166
42.32	2255	2165
42.33	2339	2165
42.34	2299	2164
42.35	2352	2164
42.36	2290	2163
42.37	2262	2163
42.38	2310	2162
42.39	2325	2162
42.4	2358	2161
42.41	2327	2161
42.42	2356	2160
42.43	2400	2160
42.44	2345	2159
42.45	2339	2159
42.46	2356	2158
42.47	2345	2158
42.48	2305	2157
42.49	2290	2157
42.5	2231	2156
42.51	2291	2156
42.52	2298	2155
42.53	2336	2155
42.54	2327	2154
42.55	2264	2154
42.56	2299	2153
42.57	2315	2153
42.58	2307	2152
42.59	2304	2152
42.6	2293	2151
42.61	2322	2151
42.62	2248	2150
42.63	2318	2150
42.64	2235	2149
42.65	2257	2149
42.66	2281	2148
42.67	2258	2148
42.68	2246	2147
42.69	2183	2147
42.7	2242	2147
42.71	2255	2146
42.72	2214	2146
42.73	2240	2145
42.74	2293	2145
42.75	2282	2144
42.76	2233	2144
42.77	2233	2143
42.78	2305	2143
42.79	2286	2142
42.8	2244	2142
42.81	2232	2141
42.82	2282	2141
42.83	2283	2141
42.84	2234	2140
42.85	2212	2140
42.86	2212	2139
42.87	2246	2139
42.88	2241	2138
42.89	2232	2138
42.9	2254	2137
42.91	2226	2137
42.92	2209	2136
42.93	2266	2136
42.94	2236	2136
42.95	2245	2135
42.96	2198	2135
42.97	2232	2134
42.98	2255	2134
42.99	2259	2133
43.0	2209	2133
43.01	2187	2133
43.02	2231	2132
43.03	2231	2132
43.04	2180	2131
43.05	2247	2131
43.06	2262	2130
43.07	2238	2130
43.08	2196	2129
43.09	2211	2129
43.1	2218	2129
43.11	2216	2128
43.12	2233	2128
43.13	2251	2127
43.14	2257	2127
43.15	2210	2127
43.16	2235	2126
43.17	2221	2126
43.18	2223	2125
43.19	2220	2125
43.2	2205	2124
43.21	2267	2124
43.22	2306	2124
43.23	2322	2123
43.24	2241	2123
43.25	2200	2122
43.26	2193	2122
43.27	2225	2121
43.28	2248	2121
43.29	2251	2121
43.3	2274	2120
43.31	2285	2120
43.32	2234	2119
43.33	2241	2119
43.34	2264	2119
43.35	2270	2118
43.36	2268	2118
43.37	2223	2117
43.38	2231	2117
43.39	2203	2117
43.4	2253	2116
43.41	2305	2116
43.42	2233	2115
43.43	2193	2115
43.44	2201	2115
43.45	2270	2114
43.46	2266	2114
43.47	2199	2113
43.48	2214	2113
43.49	2235	2113
43.5	2233	2112
43.51	2241	2112
43.52	2200	2111
43.53	2198	2111
43.54	2224	2111
43.55	2231	2110
43.56	2211	2110
43.57	2223	2110
43.58	2212	2109
43.59	2171	2109
43.6	2185	2108
43.61	2230	2108
43.62	2189	2108
43.63	2191	2107
43.64	2231	2107
43.65	2192	2106
43.66	2238	2106
43.67	2181	2106
43.68	2230	2105
43.69	2182	2105
43.7	2211	2105
43.71	2227	2104
43.72	2217	2104
43.73	2245	2103
43.74	2231	2103
43.75	2237	2103
43.76	2169	2102
43.77	2168	2102
43.78	2216	2102
43.79	2234	2101
43.8	2176	2101
43.81	2238	2101
43.82	2252	2100
43.83	2152	2100
43.84	2182	2099
43.85	2269	2099
43.86	2245	2099
43.87	2230	2098
43.88	2218	2098
43.89	2192	2098
43.9	2240	2097
43.91	2209	2097
43.92	2217	2097
43.93	2221	2096
43.94	2155	2096
43.95	2153	2095
43.96	2210	2095
43.97	2183	2095
43.98	2168	2094
43.99	2192	2094
44.0	2230	2094
44.01	2247	2093
44.02	2190	2093
44.03	2218	2093
44.04	2213	2092
44.05	2204	2092
44.06	2190	2092
44.07	2189	2091
44.08	2183	2091
44.09	2163	2091
44.1	2188	2090
44.11	2204	2090
44.12	2150	2090
44.13	2185	2089
44.14	2228	2089
44.15	2227	2089
44.16	2244	2088
44.17	2271	2088
44.18	2256	2087
44.19	2228	2087
44.2	2243	2087
44.21	2243	2086
44.22	2196	2086
44.23	2212	2086
44.24	2267	2085
44.25	2270	2085
44.26	2244	2085
44.27	2271	2084
44.28	2310	2084
44.29	2254	2084
44.3	2268	2083
44.31	2293	2083
44.32	2320	2083
44.33	2304	2082
44.34	2255	2082
44.35	2316	2082
44.36	2362	2081
44.37	2352	2081
44.38	2449	2081
44.39	2449	2080
44.4	2402	2080
44.41	2418	2080
44.42	2487	2080
44.43	2493	2079
44.44	2452	2079
44.45	2535	2079
44.46	2645	2078
44.47	2667	2078
44.48	2684	2078
44.49	2739	2077
44.5	2787	2077
44.51	2782	2077
44.52	2830	2076
44.53	2963	2076
44.54	3102	2076
44.55	3113	2075
44.56	3188	2075
44.57	3299	2075
44.58	3417	2074
44.59	3633	2074
44.6	3819	2074
44.61	4054	2073
44.62	4201	2073
44.63	4421	2073
44.64	4616	2073
44.65	4891	2072
44.66	5071	2072
44.67	5375	2072
44.68	5673	2071
44.69	5939	2071
44.7	6330	2071
44.71	6644	2070
44.72	6736	2070
44.73	7046	2070
44.74	7442	2069
44.75	7656	2069
44.76	7851	2069
44.77	8031	2069
44.78	8190	2068
44.79	8218	2068
44.8	8198	2068
44.81	8148	2067
44.82	8061	2067
44.83	7919	2067
44.84	7710	2066
44.85	7599	2066
44.86	7421	2066
44.87	7181	2066
44.88	6919	2065
44.89	6646	2065
44.9	6444	2065
44.91	6237	2064
44.92	6032	2064
44.93	5653	2064
44.94	5335	2063
44.95	5125	2063
44.96	4886	2063
44.97	4679	2063
44.98	4467	2062
44.99	4211	2062
45.0	4005	2062
45.01	3882	2061
45.02	3674	2061
45.03	3429	2061
45.04	3344	2060
45.05	3261	2060
45.06	3099	2060
45.07	2978	2060
45.08	2854	2059
45.09	2759	2059
45.1	2781	2059
45.11	2674	2058
45.12	2581	2058
45.13	2627	2058
45.14	2591	2058
45.15	2481	2057
45.16	2408	2057
45.17	2412	2057
45.18	2456	2056
45.19	2429	2056
45.2	2342	2056
45.21	2307	2056
45.22	2310	2055
45.23	2304	2055
45.24	2289	2055
45.25	2303	2054
45.26	2217	2054
45.27	2197	2054
45.28	2229	2054
45.29	2236	2053
45.3	2216	2053
45.31	2215	2053
45.32	2201	2053
45.33	2198	2052
45.34	2218	2052
45.35	2166	2052
45.36	2159	2051
45.37	2163	2051
45.38	2161	2051
45.39	2171	2051
45.4	2170	2050
45.41	2170	2050
45.42	2178	2050
45.43	2162	2049
45.44	2173	2049
45.45	2207	2049
45.46	2146	2049
45.47	2124	2048
45.48	2151	2048
45.49	2143	2048
45.5	2128	2048
45.51	2103	2047
45.52	2080	2047
45.53	2140	2047
45.54	2173	2046
45.55	2144	2046
45.56	2074	2046
45.57	2088	2046
45.58	2118	2045
45.59	2085	2045
45.6	2099	2045
45.61	2156	2045
45.62	2198	2044
45.63	2171	2044
45.64	2077	2044
45.65	2051	2043
45.66	2093	2043
45.67	2148	2043
45.68	2124	2043
45.69	2089	2042
45.7	2054	2042
45.71	2088	2042
45.72	2086	2042
45.73	2052	2041
45.74	2085	2041
45.75	2107	2041
45.76	2124	2041
45.77	2116	2040
45.78	2123	2040
45.79	2142	2040
45.8	2094	2040
45.81	2092	2039
45.82	2122	2039
45.83	2099	2039
45.84	2080	2038
45.85	2118	2038
45.86	2154	2038
45.87	2083	2038
45.88	2048	2037
45.89	2085	2037
45.9	2112	2037
45.91	2085	2037
45.92	2098	2036
45.93	2123	2036
45.94	2106	2036
45.95	2086	2036
45.96	2073	2035
45.97	2071	2035
45.98	2093	2035
45.99	2087	2035
46.0	2075	2034
46.01	2123	2034
46.02	2082	2034
46.03	2077	2034
46.04	2103	2033
46.05	2091	2033
46.06	2088	2033
46.07	2083	2032
46.08	2069	2032
46.09	2086	2032
46.1	2081	2032
46.11	2077	2031
46.12	2069	2031
46.13	2042	2031
46.14	2049	2031
46.15	2064	2030
46.16	2041	2030
46.17	2054	2030
46.18	2126	2030
46.19	2107	2029
46.2	2065	2029
46.21	2096	2029
46.22	2121	2029
46.23	2081	2028
46.24	2080	2028
46.25	2089	2028
46.26	2079	2028
46.27	2056	2027
46.28	2050	2027
46.29	2081	2027
46.3	2066	2027
46.31	2068	2026
46.32	2063	2026
46.33	2076	2026
46.34	2089	2026
46.35	2076	2025
46.36	2102	2025
46.37	2119	2025
46.38	2076	2025
46.39	2063	2024
46.4	2087	2024
46.41	2082	2024
46.42	2100	2024
46.43	2082	2023
46.44	2050	2023
46.45	2050	2023
46.46	2070	2023
46.47	2077	2022
46.48	2101	2022
46.49	2095	2022
46.5	2088	2022
46.51	2080	2021
46.52	2053	2021
46.53	2063	2021
46.54	2040	2021
46.55	2008	2020
46.56	2009	2020
46.57	2067	2020
46.58	2051	2020
46.59	2041	2019
46.6	2071	2019
46.61	2094	2019
46.62	2083	2019
46.63	2079	2018
46.64	2072	2018
46.65	2060	2018
46.66	2058	2018
46.67	2069	2017
46.68	2080	2017
46.69	2084	2017
46.7	2067	2017
46.71	2020	2016
46.72	2046	2016
46.73	2064	2016
46.74	2056	2016
46.75	2073	2015
46.76	2101	2015
46.77	2085	2015
46.78	2097	2015
46.79	2081	2014
46.8	2069	2014
46.81	2069	2014
46.82	2065	2014
46.83	2111	2013
46.84	2110	2013
46.85	2072	2013
46.86	2069	2013
46.87	2060	2012
46.88	2079	2012
46.89	2077	2012
46.9	2028	2012
46.91	1999	2011
46.92	2004	2011
46.93	1987	2011
46.94	1981	2011
46.95	2040	2010
46.96	2065	2010
46.97	2088	2010
46.98	2088	2010
46.99	2041	2009
47.0	2004	2009
47.01	2023	2009
47.02	2061	2009
47.03	2098	2008
47.04	2082	2008
47.05	2076	2008
47.06	2090	2007
47.07	2070	2007
47.08	2033	2007
47.09	1990	2007
47.1	1990	2006
47.11	2000	2006
47.12	2028	2006
47.13	2059	2006
47.14	2054	2005
47.15	2040	2005
47.16	2061	2005
47.17	2053	2005
47.18	2022	2004
47.19	2025	2004
47.2	2057	2004
47.21	2063	2004
47.22	2078	2003
47.23	2050	2003
47.24	2010	2003
47.25	2033	2003
47.26	2032	2002
47.27	2023	2002
47.28	2046	2002
47.29	2060	2002
47.3	2056	2001
47.31	2086	2001
47.32	2077	2001
47.33	2022	2001
47.34	2060	2000
47.35	2078	2000
47.36	2054	2000
47.37	2069	2000
47.38	2082	1999
47.39	2068	1999
47.4	2063	1999
47.41	2076	1999
47.42	2090	1998
47.43	2087	1998
47.44	2077	1998
47.45	2072	1998
47.46	2026	1997
47.47	2018	1997
47.48	2057	1997
47.49	2063	1997
47.5	2057	1996
47.51	2065	1996
47.52	2038	1996
47.53	2027	1996
47.54	2043	1995
47.55	2048	1995
47.56	2026	1995
47.57	2022	1995
47.58	2024	1994
47.59	1992	1994
47.6	1985	1994
47.61	1976	1994
47.62	1988	1993
47.63	2004	1993
47.64	2030	1993
47.65	2019	1992
47.66	2037	1992
47.67	2042	1992
47.68	2062	1992
47.69	2044	1991
47.7	2043	1991
47.71	2032	1991
47.72	2015	1991
47.73	2003	1990
47.74	2037	1990
47.75	2055	1990
47.76	2025	1990
47.77	2045	1989
47.78	2052	1989
47.79	2020	1989
47.8	2036	1989
47.81	2064	1988
47.82	2087	1988
47.83	2082	1988
47.84	2033	1988
47.85	2003	1987
47.86	2002	1987
47.87	2010	1987
47.88	2024	1986
47.89	2071	1986
47.9	2069	1986
47.91	2035	1986
47.92	2047	1985
47.93	2075	1985
47.94	2063	1985
47.95	2044	1985
47.96	2050	1984
47.97	2099	1984
47.98	2113	1984
47.99	2039	1984
48.0	1987	1983
48.01	2022	1983
48.02	2012	1983
48.03	2016	1982
48.04	2067	1982
48.05	2046	1982
48.06	2017	1982
48.07	2038	1981
48.08	2053	1981
48.09	2069	1981
48.1	2050	1981
48.11	2029	1980
48.12	2037	1980
48.13	2030	1980
48.14	2043	1979
48.15	2059	1979
48.16	2084	1979
48.17	2082	1979
48.18	2046	1978
48.19	2035	1978
48.2	1996	1978
48.21	1970	1978
48.22	1971	1977
48.23	2000	1977
48.24	2028	1977
48.25	2013	1976
48.26	2028	1976
48.27	2022	1976
48.28	2030	1976
48.29	2021	1975
48.3	1966	1975
48.31	1973	1975
48.32	2011	1975
48.33	2023	1974
48.34	2041	1974
48.35	2046	1974
48.36	2028	1973
48.37	2027	1973
48.38	2028	1973
48.39	2008	1973
48.4	1987	1972
48.41	1981	1972
48.42	1995	1972
48.43	2002	1971
48.44	2017	1971
48.45	2028	1971
48.46	2018	1971
48.47	2044	1970
48.48	2100	1970
48.49	2076	1970
48.5	2041	1969
48.51	2027	1969
48.52	2033	1969
48.53	2018	1969
48.54	1968	1968
48.55	1974	1968
48.56	2014	1968
48.57	2022	1967
48.58	2006	1967
48.59	2059	1967
48.6	2104	1967
48.61	2083	1966
48.62	2088	1966
48.63	2084	1966
48.64	2087	1965
48.65	2051	1965
48.66	1996	1965
48.67	2018	1965
48.68	2088	1964
48.69	2111	1964
48.7	2093	1964
48.71	2104	1963
48.72	2139	1963
48.73	2151	1963
48.74	2168	1962
48.75	2169	1962
48.76	2185	1962
48.77	2221	1962
48.78	2237	1961
48.79	2209	1961
48.8	2204	1961
48.81	2240	1960
48.82	2308	1960
48.83	2328	1960
48.84	2339	1959
48.85	2404	1959
48.86	2467	1959
48.87	2479	1959
48.88	2474	1958
48.89	2485	1958
48.9	2519	1958
48.91	2553	1957
48.92	2538	1957
48.93	2512	1957
48.94	2560	1956
48.95	2580	1956
48.96	2550	1956
48.97	2554	1955
48.98	2564	1955
48.99	2560	1955
49.0	2539	1955
49.01	2518	1954
49.02	2530	1954
49.03	2497	1954
49.04	2447	1953
49.05	2447	1953
49.06	2408	1953
49.07	2358	1952
49.08	2336	1952
49.09	2328	1952
49.1	2330	1951
49.11	2299	1951
49.12	2252	1951
49.13	2237	1950
49.14	2184	1950
49.15	2133	1950
49.16	2119	1950
49.17	2123	1949
49.18	2099	1949
49.19	2100	1949
49.2	2114	1948
49.21	2066	1948
49.22	2062	1948
49.23	2098	1947
49.24	2107	1947
49.25	2102	1947
49.26	2074	1946
49.27	2050	1946
49.28	2016	1946
49.29	1965	1945
49.3	1969	1945
49.31	1998	1945
49.32	1977	1944
49.33	1971	1944
49.34	1988	1944
49.35	1982	1943
49.36	1980	1943
49.37	2011	1943
49.38	2014	1942
49.39	2006	1942
49.4	1970	1942
49.41	1937	1941
49.42	1930	1941
49.43	1936	1941
49.44	1974	1940
49.45	1995	1940
49.46	2004	1940
49.47	1980	1939
49.48	1940	1939
49.49	1939	1939
49.5	1984	1938
49.51	1990	1938
49.52	1976	1938
49.53	1972	1937
49.54	1964	1937
49.55	1973	1937
49.56	1986	1936
49.57	1999	1936
49.58	1997	1936
49.59	1989	1935
49.6	1991	1935
49.61	1984	1935
49.62	1963	1934
49.63	1938	1934
49.64	1934	1934
49.65	1933	1933
49.66	1946	1933
49.67	1965	1932
49.68	1977	1932
49.69	1957	1932
49.7	1950	1931
49.71	1983	1931
49.72	1982	1931
49.73	1992	1930
49.74	1996	1930
49.75	1979	1930
49.76	1963	1929
49.77	1940	1929
49.78	1957	1929
49.79	1945	1928
49.8	1945	1928
49.81	1953	1928
49.82	1956	1927
49.83	1980	1927
49.84	1966	1927
49.85	1960	1926
49.86	1974	1926
49.87	1983	1925
49.88	1982	1925
49.89	1984	1925
49.9	1942	1924
49.91	1897	1924
49.92	1942	1924
49.93	1949	1923
49.94	1929	1923
49.95	1946	1923
49.96	1952	1922
49.97	1930	1922
49.98	1931	1921
49.99	1951	1921
50.0	1950	1921
50.01	1930	1920
50.02	1917	1920
50.03	1919	1920
50.04	1924	1919
50.05	1930	1919
50.06	1941	1919
50.07	1951	1918
50.08	1939	1918
50.09	1926	1917
50.1	1953	1917
50.11	1980	1917
50.12	1943	1916
50.13	1898	1916
50.14	1933	1916
50.15	1989	1915
50.16	1996	1915
50.17	1941	1915
50.18	1902	1914
50.19	1895	1914
50.2	1885	1913
50.21	1918	1913
50.22	1936	1913
50.23	1924	1912
50.24	1916	1912
50.25	1911	1912
50.26	1891	1911
50.27	1894	1911
50.28	1933	1910
50.29	1945	1910
50.3	1943	1910
50.31	1946	1909
50.32	1933	1909
50.33	1930	1909
50.34	1926	1908
50.35	1892	1908
50.36	1864	1907
50.37	1875	1907
50.38	1911	1907
50.39	1947	1906
50.4	1920	1906
50.41	1895	1906
50.42	1894	1905
50.43	1903	1905
50.44	1920	1904
50.45	1918	1904
50.46	1924	1904
50.47	1935	1903
50.48	1946	1903
50.49	1927	1903
50.5	1916	1902
50.51	1935	1902
50.52	1942	1901
50.53	1914	1901
50.54	1890	1901
50.55	1881	1900
50.56	1848	1900
50.57	1852	1900
50.58	1879	1899
50.59	1898	1899
50.6	1905	1898
50.61	1861	1898
50.62	1850	1898
50.63	1852	1897
50.64	1836	1897
50.65	1866	1896
50.66	1888	1896
50.67	1872	1896
50.68	1871	1895
50.69	1898	1895
50.7	1922	1895
50.71	1905	1894
50.72	1862	1894
50.73	1856	1893
50.74	1870	1893
50.75	1873	1893
50.76	1865	1892
50.77	1856	1892
50.78	1873	1891
50.79	1907	1891
50.8	1906	1891
50.81	1882	1890
50.82	1878	1890
50.83	1882	1889
50.84	1861	1889
50.85	1825	1889
50.86	1848	1888
50.87	1864	1888
50.88	1842	1887
50.89	1869	1887
50.9	1886	1887
50.91	1847	1886
50.92	1820	1886
50.93	1849	1886
50.94	1886	1885
50.95	1890	1885
50.96	1886	1884
50.97	1877	1884
50.98	1892	1884
50.99	1893	1883
51.0	1850	1883
51.01	1855	1882
51.02	1856	1882
51.03	1829	1882
51.04	1842	1881
51.05	1855	1881
51.06	1858	1880
51.07	1885	1880
51.08	1880	1880
51.09	1885	1879
51.1	1886	1879
51.11	1836	1878
51.12	1815	1878
51.13	1834	1878
51.14	1851	1877
51.15	1870	1877
51.16	1864	1876
51.17	1824	1876
51.18	1813	1876
51.19	1807	1875
51.2	1843	1875
51.21	1894	1874
51.22	1885	1874
51.23	1845	1874
51.24	1802	1873
51.25	1799	1873
51.26	1843	1872
51.27	1839	1872
51.28	1806	1872
51.29	1817	1871
51.3	1835	1871
51.31	1870	1870
51.32	1876	1870
51.33	1842	1870
51.34	1822	1869
51.35	1829	1869
51.36	1837	1868
51.37	1837	1868
51.38	1831	1868
51.39	1832	1867
51.4	1842	1867
51.41	1856	1866
51.42	1863	1866
51.43	1853	1866
51.44	1835	1865
51.45	1841	1865
51.46	1842	1864
51.47	1809	1864
51.48	1772	1864
51.49	1817	1863
51.5	1854	1863
51.51	1846	1862
51.52	1845	1862
51.53	1809	1862
51.54	1825	1861
51.55	1832	1861
51.56	1839	1860
51.57	1850	1860
51.58	1808	1860
51.59	1806	1859
51.6	1826	1859
51.61	1804	1858
51.62	1820	1858
51.63	1840	1858
51.64	1846	1857
51.65	1837	1857
51.66	1813	1856
51.67	1842	1856
51.68	1829	1856
51.69	1796	1855
51.7	1801	1855
51.71	1766	1854
51.72	1764	1854
51.73	1803	1853
51.74	1820	1853
51.75	1808	1853
51.76	1773	1852
51.77	1782	1852
51.78	1789	1851
51.79	1794	1851
51.8	1842	1851
51.81	1871	1850
51.82	1824	1850
51.83	1806	1849
51.84	1807	1849
51.85	1798	1849
51.86	1828	1848
51.87	1847	1848
51.88	1853	1847
51.89	1872	1847
51.9	1842	1847
51.91	1805	1846
51.92	1809	1846
51.93	1802	1845
51.94	1809	1845
51.95	1839	1845
51.96	1851	1844
51.97	1844	1844
51.98	1821	1843
51.99	1800	1843
52.0	1802	1843
52.01	1805	1842
52.02	1790	1842
52.03	1795	1841
52.04	1803	1841
52.05	1804	1840
52.06	1824	1840
52.07	1818	1840
52.08	1843	1839
52.09	1832	1839
52.1	1788	1838
52.11	1807	1838
52.12	1860	1838
52.13	1855	1837
52.14	1812	1837
52.15	1836	1836
52.16	1863	1836
52.17	1828	1836
52.18	1775	1835
52.19	1779	1835
52.2	1808	1834
52.21	1834	1834
52.22	1833	1834
52.23	1800	1833
52.24	1791	1833
52.25	1794	1832
52.26	1840	1832
52.27	1898	1831
52.28	1859	1831
52.29	1798	1831
52.3	1780	1830
52.31	1823	1830
52.32	1822	1829
52.33	1780	1829
52.34	1804	1829
52.35	1822	1828
52.36	1804	1828
52.37	1785	1827
52.38	1799	1827
52.39	1833	1827
52.4	1821	1826
52.41	1781	1826
52.42	1771	1825
52.43	1804	1825
52.44	1846	1825
52.45	1836	1824
52.46	1785	1824
52.47	1789	1823
52.48	1817	1823
52.49	1797	1823
52.5	1756	1822
52.51	1772	1822
52.52	1840	1821
52.53	1845	1821
52.54	1851	1820
52.55	1839	1820
52.56	1806	1820
52.57	1798	1819
52.58	1812	1819
52.59	1774	1818
52.6	1757	1818
52.61	1779	1818
52.62	1793	1817
52.63	1805	1817
52.64	1855	1816
52.65	1864	1816
52.66	1798	1816
52.67	1766	1815
52.68	1797	1815
52.69	1804	1814
52.7	1798	1814
52.71	1795	1814
52.72	1770	1813
52.73	1779	1813
52.74	1827	1812
52.75	1844	1812
52.76	1833	1812
52.77	1789	1811
52.78	1783	1811
52.79	1802	1810
52.8	1783	1810
52.81	1783	1810
52.82	1811	1809
52.83	1827	1809
52.84	1812	1808
52.85	1771	1808
52.86	1755	1808
52.87	1777	1807
52.88	1787	1807
52.89	1776	1806
52.9	1761	1806
52.91	1764	1805
52.92	1763	1805
52.93	1765	1805
52.94	1778	1804
52.95	1782	1804
52.96	1779	1803
52.97	1779	1803
52.98	1798	1803
52.99	1818	1802
53.0	1816	1802
53.01	1828	1801
53.02	1819	1801
53.03	1796	1801
53.04	1812	1800
53.05	1797	1800
53.06	1777	1799
53.07	1808	1799
53.08	1810	1799
53.09	1758	1798
53.1	1752	1798
53.11	1795	1797
53.12	1799	1797
53.13	1783	1797
53.14	1792	1796
53.15	1796	1796
53.16	1789	1795
53.17	1787	1795
53.18	1769	1795
53.19	1769	1794
53.2	1806	1794
53.21	1835	1793
53.22	1806	1793
53.23	1752	1793
53.24	1753	1792
53.25	1793	1792
53.26	1809	1791
53.27	1821	1791
53.28	1841	1791
53.29	1821	1790
53.3	1799	1790
53.31	1796	1789
53.32	1795	1789
53.33	1821	1789
53.34	1839	1788
53.35	1813	1788
53.36	1769	1788
53.37	1734	1787
53.38	1760	1787
53.39	1831	1786
53.4	1836	1786
53.41	1787	1786
53.42	1771	1785
53.43	1773	1785
53.44	1779	1784
53.45	1815	1784
53.46	1813	1784
53.47	1768	1783
53.48	1770	1783
53.49	1771	1782
53.5	1757	1782
53.51	1795	1782
53.52	1810	1781
53.53	1795	1781
53.54	1794	1780
53.55	1799	1780
53.56	1809	1780
53.57	1805	1779
53.58	1813	1779
53.59	1827	1778
53.6	1785	1778
53.61	1752	1778
53.62	1764	1777
53.63	1765	1777
53.64	1765	1777
53.65	1745	1776
53.66	1764	1776
53.67	1785	1775
53.68	1792	1775
53.69	1739	1775
53.7	1717	1774
53.71	1753	1774
53.72	1771	1773
53.73	1748	1773
53.74	1748	1773
53.75	1793	1772
53.76	1814	1772
53.77	1798	1772
53.78	1793	1771
53.79	1824	1771
53.8	1856	1770
53.81	1816	1770
53.82	1802	1770
53.83	1817	1769
53.84	1807	1769
53.85	1789	1768
53.86	1757	1768
53.87	1754	1768
53.88	1773	1767
53.89	1773	1767
53.9	1779	1767
53.91	1814	1766
53.92	1794	1766
53.93	1765	1765
53.94	1811	1765
53.95	1841	1765
53.96	1795	1764
53.97	1787	1764
53.98	1794	1764
53.99	1771	1763
54.0	1744	1763
54.01	1751	1762
54.02	1777	1762
54.03	1791	1762
54.04	1779	1761
54.05	1771	1761
54.06	1798	1761
54.07	1833	1760
54.08	1840	1760
54.09	1816	1759
54.1	1794	1759
54.11	1773	1759
54.12	1764	1758
54.13	1768	1758
54.14	1784	1758
54.15	1792	1757
54.16	1762	1757
54.17	1746	1756
54.18	1759	1756
54.19	1767	1756
54.2	1788	1755
54.21	1805	1755
54.22	1792	1755
54.23	1806	1754
54.24	1819	1754
54.25	1809	1753
54.26	1814	1753
54.27	1808	1753
54.28	1763	1752
54.29	1733	1752
54.3	1767	1752
54.31	1789	1751
54.32	1781	1751
54.33	1789	1751
54.34	1778	1750
54.35	1722	1750
54.36	1747	1749
54.37	1798	1749
54.38	1783	1749
54.39	1788	1748
54.4	1778	1748
54.41	1782	1748
54.42	1802	1747
54.43	1769	1747
54.44	1736	1747
54.45	1762	1746
54.46	1817	1746
54.47	1822	1746
54.48	1797	1745
54.49	1797	1745
54.5	1769	1744
54.51	1753	1744
54.52	1748	1744
54.53	1779	1743
54.54	1804	1743
54.55	1793	1743
54.56	1796	1742
54.57	1771	1742
54.58	1721	1742
54.59	1739	1741
54.6	1800	1741
54.61	1793	1741
54.62	1784	1740
54.63	1829	1740
54.64	1805	1739
54.65	1758	1739
54.66	1733	1739
54.67	1785	1738
54.68	1785	1738
54.69	1775	1738
54.7	1786	1737
54.71	1766	1737
54.72	1738	1737
54.73	1740	1736
54.74	1732	1736
54.75	1726	1736
54.76	1762	1735
54.77	1749	1735
54.78	1733	1735
54.79	1733	1734
54.8	1727	1734
54.81	1760	1734
54.82	1780	1733
54.83	1744	1733
54.84	1758	1733
54.85	1757	1732
54.86	1737	1732
54.87	1772	1732
54.88	1793	1731
54.89	1756	1731
54.9	1745	1731
54.91	1772	1730
54.92	1787	1730
54.93	1786	1730
54.94	1766	1729
54.95	1775	1729
54.96	1769	1729
54.97	1765	1728
54.98	1780	1728
54.99	1809	1728
55.0	1785	1727
55.01	1734	1727
55.02	1751	1727
55.03	1734	1726
55.04	1757	1726
55.05	1763	1726
55.06	1738	1725
55.07	1717	1725
55.08	1714	1725
55.09	1740	1724
55.1	1719	1724
55.11	1729	1724
55.12	1764	1723
55.13	1793	1723
55.14	1769	1723
55.15	1735	1722
55.16	1709	1722
55.17	1735	1722
55.18	1772	1721
55.19	1782	1721
55.2	1790	1721
55.21	1782	1720
55.22	1750	1720
55.23	1726	1720
55.24	1724	1719
55.25	1712	1719
55.26	1767	1719
55.27	1773	1718
55.28	1748	1718
55.29	1755	1718
55.3	1742	1717
55.31	1729	1717
55.32	1701	1717
55.33	1726	1717
55.34	1720	1716
55.35	1730	1716
55.36	1771	1716
55.37	1783	1715
55.38	1749	1715
55.39	1699	1715
55.4	1709	1714
55.41	1722	1714
55.42	1710	1714
55.43	1725	1713
55.44	1733	1713
55.45	1756	1713
55.46	1786	1713
55.47	1773	1712
55.48	1747	1712
55.49	1735	1712
55.5	1758	1711
55.51	1794	1711
55.52	1773	1711
55.53	1711	1710
55.54	1726	1710
55.55	1725	1710
55.56	1737	1710
55.57	1736	1709
55.58	1741	1709
55.59	1737	1709
55.6	1739	1708
55.61	1744	1708
55.62	1732	1708
55.63	1731	1707
55.64	1739	1707
55.65	1727	1707
55.66	1721	1707
55.67	1757	1706
55.68	1780	1706
55.69	1768	1706
55.7	1767	1705
55.71	1787	1705
55.72	1809	1705
55.73	1790	1705
55.74	1751	1704
55.75	1740	1704
55.76	1785	1704
55.77	1763	1703
55.78	1713	1703
55.79	1698	1703
55.8	1705	1703
55.81	1747	1702
55.82	1750	1702
55.83	1717	1702
55.84	1717	1701
55.85	1724	1701
55.86	1735	1701
55.87	1739	1701
55.88	1741	1700
55.89	1733	1700
55.9	1728	1700
55.91	1695	1699
55.92	1682	1699
55.93	1681	1699
55.94	1704	1699
55.95	1770	1698
55.96	1780	1698
55.97	1775	1698
55.98	1759	1698
55.99	1746	1697
56.0	1754	1697
56.01	1723	1697
56.02	1732	1696
56.03	1765	1696
56.04	1784	1696
56.05	1748	1696
56.06	1716	1695
56.07	1732	1695
56.08	1754	1695
56.09	1761	1695
56.1	1736	1694
56.11	1781	1694
56.12	1805	1694
56.13	1769	1694
56.14	1739	1693
56.15	1721	1693
56.16	1723	1693
56.17	1736	1693
56.18	1716	1692
56.19	1717	1692
56.2	1689	1692
56.21	1713	1692
56.22	1725	1691
56.23	1707	1691
56.24	1726	1691
56.25	1730	1691
56.26	1719	1690
56.27	1755	1690
56.28	1761	1690
56.29	1740	1690
56.3	1736	1689
56.31	1704	1689
56.32	1693	1689
56.33	1709	1689
56.34	1682	1688
56.35	1723	1688
56.36	1732	1688
56.37	1737	1688
56.38	1761	1687
56.39	1745	1687
56.4	1714	1687
56.41	1656	1687
56.42	1708	1686
56.43	1733	1686
56.44	1751	1686
56.45	1773	1686
56.46	1732	1685
56.47	1739	1685
56.48	1783	1685
56.49	1731	1685
56.5	1696	1685
56.51	1735	1684
56.52	1771	1684
56.53	1750	1684
56.54	1724	1684
56.55	1708	1683
56.56	1702	1683
56.57	1674	1683
56.58	1688	1683
56.59	1723	1683
56.6	1746	1682
56.61	1725	1682
56.62	1718	1682
56.63	1758	1682
56.64	1752	1681
56.65	1710	1681
56.66	1704	1681
56.67	1714	1681
56.68	1710	1681
56.69	1718	1680
56.7	1709	1680
56.71	1670	1680
56.72	1651	1680
56.73	1675	1680
56.74	1754	1679
56.75	1756	1679
56.76	1727	1679
56.77	1735	1679
56.78	1725	1678
56.79	1737	1678
56.8	1782	1678
56.81	1792	1678
56.82	1740	1678
56.83	1696	1677
56.84	1738	1677
56.85	1739	1677
56.86	1714	1677
56.87	1726	1677
56.88	1721	1676
56.89	1722	1676
56.9	1714	1676
56.91	1725	1676
56.92	1745	1676
56.93	1780	1675
56.94	1809	1675
56.95	1821	1675
56.96	1821	1675
56.97	1791	1675
56.98	1797	1675
56.99	1772	1674
57.0	1741	1674
57.01	1788	1674
57.02	1837	1674
57.03	1817	1674
57.04	1809	1673
57.05	1760	1673
57.06	1749	1673
57.07	1755	1673
57.08	1842	1673
57.09	1905	1672
57.1	1892	1672
57.11	1863	1672
57.12	1810	1672
57.13	1808	1672
57.14	1790	1672
57.15	1798	1671
57.16	1833	1671
57.17	1843	1671
57.18	1844	1671
57.19	1863	1671
57.2	1859	1671
57.21	1866	1670
57.22	1867	1670
57.23	1878	1670
57.24	1840	1670
57.25	1829	1670
57.26	1825	1670
57.27	1829	1669
57.28	1857	1669
57.29	1844	1669
57.3	1830	1669
57.31	1838	1669
57.32	1844	1669
57.33	1857	1668
57.34	1865	1668
57.35	1805	1668
57.36	1818	1668
57.37	1849	1668
57.38	1864	1668
57.39	1871	1667
57.4	1841	1667
57.41	1791	1667
57.42	1801	1667
57.43	1807	1667
57.44	1843	1667
57.45	1817	1666
57.46	1806	1666
57.47	1812	1666
57.48	1826	1666
57.49	1852	1666
57.5	1825	1666
57.51	1795	1666
57.52	1801	1665
57.53	1823	1665
57.54	1824	1665
57.55	1803	1665
57.56	1791	1665
57.57	1818	1665
57.58	1818	1665
57.59	1818	1664
57.6	1819	1664
57.61	1829	1664
57.62	1835	1664
57.63	1846	1664
57.64	1843	1664
57.65	1842	1664
57.66	1793	1663
57.67	1801	1663
57.68	1800	1663
57.69	1771	1663
57.7	1766	1663
57.71	1749	1663
57.72	1746	1663
57.73	1757	1662
57.74	1786	1662
57.75	1788	1662
57.76	1794	1662
57.77	1813	1662
57.78	1811	1662
57.79	1772	1662
57.8	1762	1662
57.81	1719	1661
57.82	1733	1661
57.83	1780	1661
57.84	1794	1661
57.85	1757	1661
57.86	1758	1661
57.87	1755	1661
57.88	1802	1660
57.89	1777	1660
57.9	1729	1660
57.91	1758	1660
57.92	1774	1660
57.93	1756	1660
57.94	1787	1660
57.95	1786	1660
57.96	1769	1659
57.97	1760	1659
57.98	1786	1659
57.99	1870	1659
58.0	1842	1659
58.01	1817	1659
58.02	1784	1659
58.03	1751	1659
58.04	1741	1659
58.05	1775	1658
58.06	1751	1658
58.07	1759	1658
58.08	1828	1658
58.09	1781	1658
58.1	1764	1658
58.11	1759	1658
58.12	1748	1658
58.13	1755	1658
58.14	1723	1657
58.15	1714	1657
58.16	1745	1657
58.17	1735	1657
58.18	1761	1657
58.19	1808	1657
58.2	1795	1657
58.21	1799	1657
58.22	1780	1657
58.23	1766	1656
58.24	1805	1656
58.25	1796	1656
58.26	1729	1656
58.27	1760	1656
58.28	1787	1656
58.29	1781	1656
58.3	1815	1656
58.31	1813	1656
58.32	1838	1655
58.33	1803	1655
58.34	1792	1655
58.35	1845	1655
58.36	1842	1655
58.37	1819	1655
58.38	1820	1655
58.39	1848	1655
58.4	1830	1655
58.41	1821	1655
58.42	1857	1654
58.43	1911	1654
58.44	1913	1654
58.45	1829	1654
58.46	1863	1654
58.47	1903	1654
58.48	1870	1654
58.49	1847	1654
58.5	1835	1654
58.51	1823	1654
58.52	1813	1653
58.53	1820	1653
58.54	1843	1653
58.55	1880	1653
58.56	1872	1653
58.57	1857	1653
58.58	1916	1653
58.59	1960	1653
58.6	1911	1653
58.61	1885	1653
58.62	1907	1653
58.63	1912	1652
58.64	1939	1652
58.65	1937	1652
58.66	1958	1652
58.67	1963	1652
58.68	1963	1652
58.69	2015	1652
58.7	2023	1652
58.71	2073	1652
58.72	2046	1652
58.73	2044	1652
58.74	2060	1651
58.75	2076	1651
58.76	2120	1651
58.77	2129	1651
58.78	2141	1651
58.79	2185	1651
58.8	2230	1651
58.81	2297	1651
58.82	2354	1651
58.83	2310	1651
58.84	2347	1651
58.85	2388	1651
58.86	2410	1650
58.87	2421	1650
58.88	2483	1650
58.89	2542	1650
58.9	2525	1650
58.91	2564	1650
58.92	2575	1650
58.93	2632	1650
58.94	2643	1650
58.95	2617	1650
58.96	2592	1650
58.97	2544	1650
58.98	2536	1650
58.99	2553	1649
59.0	2580	1649
59.01	2555	1649
59.02	2508	1649
59.03	2485	1649
59.04	2457	1649
59.05	2424	1649
59.06	2411	1649
59.07	2373	1649
59.08	2363	1649
59.09	2376	1649
59.1	2331	1649
59.11	2324	1649
59.12	2289	1648
59.13	2236	1648
59.14	2194	1648
59.15	2114	1648
59.16	2109	1648
59.17	2150	1648
59.18	2137	1648
59.19	2103	1648
59.2	2014	1648
59.21	1987	1648
59.22	1970	1648
59.23	1925	1648
59.24	1924	1648
59.25	1926	1648
59.26	1905	1647
59.27	1916	1647
59.28	1874	1647
59.29	1866	1647
59.3	1816	1647
59.31	1775	1647
59.32	1778	1647
59.33	1812	1647
59.34	1771	1647
59.35	1761	1647
59.36	1736	1647
59.37	1760	1647
59.38	1763	1647
59.39	1760	1647
59.4	1778	1646
59.41	1783	1646
59.42	1746	1646
59.43	1740	1646
59.44	1761	1646
59.45	1739	1646
59.46	1702	1646
59.47	1722	1646
59.48	1714	1646
59.49	1721	1646
59.5	1748	1646
59.51	1758	1646
59.52	1730	1646
59.53	1757	1646
59.54	1718	1646
59.55	1732	1645
59.56	1688	1645
59.57	1704	1645
59.58	1712	1645
59.59	1683	1645
59.6	1699	1645
59.61	1693	1645
59.62	1684	1645
59.63	1695	1645
59.64	1719	1645
59.65	1714	1645
59.66	1709	1645
59.67	1677	1645
59.68	1610	1645
59.69	1664	1645
59.7	1666	1645
59.71	1727	1644
59.72	1673	1644
59.73	1693	1644
59.74	1666	1644
59.75	1655	1644
59.76	1626	1644
59.77	1634	1644
59.78	1645	1644
59.79	1659	1644
59.8	1676	1644
59.81	1695	1644
59.82	1720	1644
59.83	1694	1644
59.84	1673	1644
59.85	1687	1644
59.86	1705	1644
59.87	1699	1643
59.88	1693	1643
59.89	1660	1643
59.9	1656	1643
59.91	1664	1643
59.92	1695	1643
59.93	1681	1643
59.94	1682	1643
59.95	1668	1643
59.96	1654	1643
59.97	1683	1643
59.98	1709	1643
59.99	1675	1643
60.0	1638	1643
60.01	1656	1643
60.02	1667	1643
60.03	1657	1642
60.04	1667	1642
60.05	1697	1642
60.06	1722	1642
60.07	1710	1642
60.08	1747	1642
60.09	1729	1642
60.1	1653	1642
60.11	1621	1642
60.12	1675	1642
60.13	1672	1642
60.14	1656	1642
60.15	1673	1642
60.16	1681	1642
60.17	1617	1642
60.18	1643	1642
60.19	1673	1642
60.2	1680	1641
60.21	1654	1641
60.22	1646	1641
60.23	1654	1641
60.24	1633	1641
60.25	1657	1641
60.26	1696	1641
60.27	1701	1641
60.28	1705	1641
60.29	1700	1641
60.3	1671	1641
60.31	1718	1641
60.32	1698	1641
60.33	1701	1641
60.34	1669	1641
60.35	1644	1641
60.36	1661	1640
60.37	1705	1640
60.38	1689	1640
60.39	1656	1640
60.4	1648	1640
60.41	1675	1640
60.42	1665	1640
60.43	1634	1640
60.44	1674	1640
60.45	1685	1640
60.46	1678	1640
60.47	1664	1640
60.48	1619	1640
60.49	1626	1640
60.5	1650	1640
60.51	1694	1640
60.52	1690	1640
60.53	1637	1639
60.54	1611	1639
60.55	1663	1639
60.56	1657	1639
60.57	1663	1639
60.58	1708	1639
60.59	1757	1639
60.6	1724	1639
60.61	1670	1639
60.62	1650	1639
60.63	1639	1639
60.64	1650	1639
60.65	1637	1639
60.66	1662	1639
60.67	1677	1639
60.68	1675	1639
60.69	1670	1638
60.7	1672	1638
60.71	1694	1638
60.72	1686	1638
60.73	1660	1638
60.74	1649	1638
60.75	1686	1638
60.76	1672	1638
60.77	1648	1638
60.78	1677	1638
60.79	1705	1638
60.8	1680	1638
60.81	1703	1638
60.82	1694	1638
60.83	1652	1638
60.84	1666	1637
60.85	1646	1637
60.86	1664	1637
60.87	1686	1637
60.88	1677	1637
60.89	1649	1637
60.9	1683	1637
60.91	1689	1637
60.92	1644	1637
60.93	1634	1637
60.94	1662	1637
60.95	1630	1637
60.96	1637	1637
60.97	1621	1637
60.98	1633	1637
60.99	1625	1636
61.0	1647	1636
61.01	1641	1636
61.02	1649	1636
61.03	1645	1636
61.04	1709	1636
61.05	1638	1636
61.06	1593	1636
61.07	1658	1636
61.08	1666	1636
61.09	1632	1636
61.1	1626	1636
61.11	1626	1636
61.12	1677	1636
61.13	1681	1635
61.14	1610	1635
61.15	1629	1635
61.16	1611	1635
61.17	1599	1635
61.18	1603	1635
61.19	1635	1635
61.2	1650	1635
61.21	1706	1635
61.22	1662	1635
61.23	1622	1635
61.24	1627	1635
61.25	1630	1635
61.26	1627	1635
61.27	1617	1634
61.28	1642	1634
61.29	1640	1634
61.3	1661	1634
61.31	1667	1634
61.32	1648	1634
61.33	1636	1634
61.34	1571	1634
61.35	1624	1634
61.36	1660	1634
61.37	1627	1634
61.38	1597	1634
61.39	1613	1634
61.4	1607	1633
61.41	1618	1633
61.42	1600	1633
61.43	1630	1633
61.44	1641	1633
61.45	1695	1633
61.46	1668	1633
61.47	1611	1633
61.48	1583	1633
61.49	1612	1633
61.5	1616	1633
61.51	1612	1633
61.52	1623	1632
61.53	1636	1632
61.54	1637	1632
61.55	1624	1632
61.56	1655	1632
61.57	1659	1632
61.58	1601	1632
61.59	1608	1632
61.6	1635	1632
61.61	1622	1632
61.62	1623	1632
61.63	1647	1632
61.64	1660	1631
61.65	1659	1631
61.66	1617	1631
61.67	1603	1631
61.68	1629	1631
61.69	1644	1631
61.7	1636	1631
61.71	1624	1631
61.72	1604	1631
61.73	1617	1631
61.74	1644	1631
61.75	1596	1630
61.76	1578	1630
61.77	1585	1630
61.78	1647	1630
61.79	1673	1630
61.8	1639	1630
61.81	1636	1630
61.82	1612	1630
61.83	1613	1630
61.84	1641	1630
61.85	1616	1630
61.86	1611	1629
61.87	1610	1629
61.88	1615	1629
61.89	1597	1629
61.9	1600	1629
61.91	1583	1629
61.92	1586	1629
61.93	1614	1629
61.94	1590	1629
61.95	1597	1629
61.96	1631	1628
61.97	1618	1628
61.98	1589	1628
61.99	1612	1628
62.0	1633	1628
62.01	1651	1628
62.02	1646	1628
62.03	1644	1628
62.04	1677	1628
62.05	1631	1628
62.06	1649	1627
62.07	1648	1627
62.08	1665	1627
62.09	1651	1627
62.1	1597	1627
62.11	1647	1627
62.12	1655	1627
62.13	1621	1627
62.14	1624	1627
62.15	1641	1626
62.16	1661	1626
62.17	1640	1626
62.18	1650	1626
62.19	1639	1626
62.2	1611	1626
62.21	1676	1626
62.22	1626	1626
62.23	1585	1626
62.24	1658	1625
62.25	1677	1625
62.26	1644	1625
62.27	1614	1625
62.28	1649	1625
62.29	1646	1625
62.3	1605	1625
62.31	1577	1625
62.32	1591	1624
62.33	1614	1624
62.34	1628	1624
62.35	1647	1624
62.36	1652	1624
62.37	1647	1624
62.38	1605	1624
62.39	1628	1624
62.4	1641	1624
62.41	1592	1623
62.42	1630	1623
62.43	1685	1623
62.44	1686	1623
62.45	1643	1623
62.46	1616	1623
62.47	1613	1623
62.48	1610	1623
62.49	1609	1622
62.5	1659	1622
62.51	1652	1622
62.52	1652	1622
62.53	1617	1622
62.54	1587	1622
62.55	1616	1622
62.56	1616	1621
62.57	1649	1621
62.58	1639	1621
62.59	1666	1621
62.6	1705	1621
62.61	1671	1621
62.62	1604	1621
62.63	1651	1621
62.64	1628	1620
62.65	1588	1620
62.66	1597	1620
62.67	1649	1620
62.68	1661	1620
62.69	1645	1620
62.7	1659	1620
62.71	1624	1619
62.72	1645	1619
62.73	1612	1619
62.74	1629	1619
62.75	1637	1619
62.76	1582	1619
62.77	1590	1619
62.78	1623	1618
62.79	1610	1618
62.8	1599	1618
62.81	1609	1618
62.82	1653	1618
62.83	1604	1618
62.84	1568	1618
62.85	1642	1617
62.86	1681	1617
62.87	1617	1617
62.88	1593	1617
62.89	1629	1617
62.9	1652	1617
62.91	1674	1616
62.92	1603	1616
62.93	1584	1616
62.94	1581	1616
62.95	1617	1616
62.96	1620	1616
62.97	1601	1616
62.98	1619	1615
62.99	1638	1615
63.0	1623	1615
63.01	1625	1615
63.02	1631	1615
63.03	1625	1615
63.04	1612	1614
63.05	1627	1614
63.06	1630	1614
63.07	1638	1614
63.08	1631	1614
63.09	1619	1614
63.1	1664	1613
63.11	1679	1613
63.12	1593	1613
63.13	1638	1613
63.14	1624	1613
63.15	1706	1613
63.16	1704	1612
63.17	1689	1612
63.18	1661	1612
63.19	1658	1612
63.2	1662	1612
63.21	1632	1611
63.22	1616	1611
63.23	1644	1611
63.24	1631	1611
63.25	1608	1611
63.26	1622	1611
63.27	1664	1610
63.28	1649	1610
63.29	1604	1610
63.3	1621	1610
63.31	1666	1610
63.32	1627	1610
63.33	1635	1609
63.34	1670	1609
63.35	1687	1609
63.36	1662	1609
63.37	1659	1609
63.38	1643	1608
63.39	1616	1608
63.4	1661	1608
63.41	1635	1608
63.42	1632	1608
63.43	1660	1608
63.44	1612	1607
63.45	1595	1607
63.46	1613	1607
63.47	1618	1607
63.48	1659	1607
63.49	1680	1606
63.5	1661	1606
63.51	1627	1606
63.52	1679	1606
63.53	1645	1606
63.54	1663	1605
63.55	1672	1605
63.56	1588	1605
63.57	1600	1605
63.58	1610	1605
63.59	1632	1604
63.6	1627	1604
63.61	1620	1604
63.62	1644	1604
63.63	1656	1604
63.64	1628	1603
63.65	1612	1603
63.66	1628	1603
63.67	1645	1603
63.68	1634	1603
63.69	1643	1602
63.7	1647	1602
63.71	1618	1602
63.72	1646	1602
63.73	1655	1602
63.74	1617	1601
63.75	1634	1601
63.76	1633	1601
63.77	1673	1601
63.78	1644	1601
63.79	1659	1600
63.8	1662	1600
63.81	1639	1600
63.82	1619	1600
63.83	1661	1600
63.84	1645	1599
63.85	1613	1599
63.86	1622	1599
63.87	1595	1599
63.88	1597	1599
63.89	1642	1598
63.9	1604	1598
63.91	1610	1598
63.92	1647	1598
63.93	1731	1597
63.94	1600	1597
63.95	1623	1597
63.96	1613	1597
63.97	1666	1597
63.98	1677	1596
63.99	1640	1596
64.0	1632	1596
64.01	1658	1596
64.02	1669	1596
64.03	1656	1595
64.04	1641	1595
64.05	1630	1595
64.06	1621	1595
64.07	1601	1594
64.08	1628	1594
64.09	1662	1594
64.1	1631	1594
64.11	1632	1594
64.12	1657	1593
64.13	1656	1593
64.14	1653	1593
64.15	1680	1593
64.16	1730	1592
64.17	1700	1592
64.18	1684	1592
64.19	1636	1592
64.2	1676	1592
64.21	1699	1591
64.22	1679	1591
64.23	1637	1591
64.24	1662	1591
64.25	1668	1590
64.26	1698	1590
64.27	1757	1590
64.28	1765	1590
64.29	1747	1589
64.3	1752	1589
64.31	1803	1589
64.32	1854	1589
64.33	1831	1589
64.34	1831	1588
64.35	1871	1588
64.36	1825	1588
64.37	1852	1588
64.38	1879	1587
64.39	1891	1587
64.4	1923	1587
64.41	1967	1587
64.42	1990	1586
64.43	1975	1586
64.44	2116	1586
64.45	2116	1586
64.46	2087	1586
64.47	2174	1585
64.48	2228	1585
64.49	2221	1585
64.5	2299	1585
64.51	2430	1584
64.52	2523	1584
64.53	2497	1584
64.54	2503	1584
64.55	2653	1583
64.56	2679	1583
64.57	2704	1583
64.58	2842	1583
64.59	2932	1582
64.6	2949	1582
64.61	2971	1582
64.62	3030	1582
64.63	3161	1581
64.64	3148	1581
64.65	3162	1581
64.66	3201	1581
64.67	3203	1580
64.68	3096	1580
64.69	3049	1580
64.7	3072	1580
64.71	3105	1579
64.72	3075	1579
64.73	3035	1579
64.74	3012	1579
64.75	2986	1579
64.76	3005	1578
64.77	2968	1578
64.78	2874	1578
64.79	2836	1578
64.8	2854	1577
64.81	2784	1577
64.82	2735	1577
64.83	2720	1577
64.84	2640	1576
64.85	2590	1576
64.86	2563	1576
64.87	2491	1576
64.88	2404	1575
64.89	2374	1575
64.9	2391	1575
64.91	2357	1575
64.92	2280	1574
64.93	2216	1574
64.94	2192	1574
64.95	2170	1573
64.96	2132	1573
64.97	2047	1573
64.98	2060	1573
64.99	1997	1572
65.0	1993	1572
65.01	1970	1572
65.02	1954	1572
65.03	1934	1571
65.04	1824	1571
65.05	1854	1571
65.06	1848	1571
65.07	1787	1570
65.08	1824	1570
65.09	1829	1570
65.1	1810	1570
65.11	1750	1569
65.12	1753	1569
65.13	1808	1569
65.14	1776	1569
65.15	1736	1568
65.16	1727	1568
65.17	1741	1568
65.18	1748	1568
65.19	1778	1567
65.2	1748	1567
65.21	1731	1567
65.22	1761	1567
65.23	1768	1566
65.24	1723	1566
65.25	1720	1566
65.26	1751	1565
65.27	1749	1565
65.28	1764	1565
65.29	1771	1565
65.3	1763	1564
65.31	1748	1564
65.32	1753	1564
65.33	1815	1564
65.34	1822	1563
65.35	1824	1563
65.36	1795	1563
65.37	1769	1563
65.38	1809	1562
65.39	1835	1562
65.4	1870	1562
65.41	1898	1562
65.42	1896	1561
65.43	1912	1561
65.44	1947	1561
65.45	1968	1560
65.46	1981	1560
65.47	2016	1560
65.48	2096	1560
65.49	2154	1559
65.5	2258	1559
65.51	2371	1559
65.52	2437	1559
65.53	2462	1558
65.54	2546	1558
65.55	2637	1558
65.56	2690	1558
65.57	2800	1557
65.58	2914	1557
65.59	3025	1557
65.6	3183	1556
65.61	3285	1556
65.62	3451	1556
65.63	3532	1556
65.64	3431	1555
65.65	3439	1555
65.66	3463	1555
65.67	3486	1555
65.68	3410	1554
65.69	3391	1554
65.7	3279	1554
65.71	3171	1553
65.72	3107	1553
65.73	3028	1553
65.74	3024	1553
65.75	2953	1552
65.76	2839	1552
65.77	2889	1552
65.78	2841	1552
65.79	2834	1551
65.8	2826	1551
65.81	2867	1551
65.82	2806	1550
65.83	2727	1550
65.84	2717	1550
65.85	2670	1550
65.86	2632	1549
65.87	2524	1549
65.88	2467	1549
65.89	2428	1549
65.9	2334	1548
65.91	2242	1548
65.92	2214	1548
65.93	2128	1547
65.94	2076	1547
65.95	2005	1547
65.96	1938	1547
65.97	1933	1546
65.98	1864	1546
65.99	1870	1546
66.0	1884	1546
66.01	1807	1545
66.02	1797	1545
66.03	1780	1545
66.04	1752	1544
66.05	1736	1544
66.06	1699	1544
66.07	1720	1544
66.08	1706	1543
66.09	1657	1543
66.1	1646	1543
66.11	1669	1542
66.12	1674	1542
66.13	1677	1542
66.14	1669	1542
66.15	1661	1541
66.16	1648	1541
66.17	1609	1541
66.18	1627	1541
66.19	1605	1540
66.2	1601	1540
66.21	1598	1540
66.22	1626	1539
66.23	1602	1539
66.24	1574	1539
66.25	1612	1539
66.26	1610	1538
66.27	1664	1538
66.28	1619	1538
66.29	1614	1537
66.3	1621	1537
66.31	1597	1537
66.32	1589	1537
66.33	1603	1536
66.34	1621	1536
66.35	1590	1536
66.36	1582	1536
66.37	1595	1535
66.38	1609	1535
66.39	1575	1535
66.4	1545	1534
66.41	1578	1534
66.42	1618	1534
66.43	1584	1534
66.44	1555	1533
66.45	1576	1533
66.46	1581	1533
66.47	1549	1532
66.48	1585	1532
66.49	1557	1532
66.5	1564	1532
66.51	1554	1531
66.52	1521	1531
66.53	1553	1531
66.54	1597	1531
66.55	1535	1530
66.56	1529	1530
66.57	1560	1530
66.58	1539	1529
66.59	1528	1529
66.6	1571	1529
66.61	1590	1529
66.62	1572	1528
66.63	1590	1528
66.64	1561	1528
66.65	1562	1527
66.66	1519	1527
66.67	1578	1527
66.68	1619	1527
66.69	1619	1526
66.7	1554	1526
66.71	1566	1526
66.72	1544	1525
66.73	1606	1525
66.74	1545	1525
66.75	1543	1525
66.76	1572	1524
66.77	1597	1524
66.78	1636	1524
66.79	1610	1524
66.8	1621	1523
66.81	1594	1523
66.82	1584	1523
66.83	1596	1522
66.84	1572	1522
66.85	1569	1522
66.86	1573	1522
66.87	1584	1521
66.88	1564	1521
66.89	1559	1521
66.9	1544	1520
66.91	1532	1520
66.92	1548	1520
66.93	1564	1520
66.94	1573	1519
66.95	1527	1519
66.96	1542	1519
66.97	1579	1518
66.98	1570	1518
66.99	1549	1518
67.0	1577	1518
67.01	1526	1517
67.02	1555	1517
67.03	1592	1517
67.04	1621	1517
67.05	1605	1516
67.06	1577	1516
67.07	1577	1516
67.08	1547	1515
67.09	1549	1515
67.1	1534	1515
67.11	1545	1515
67.12	1553	1514
67.13	1544	1514
67.14	1568	1514
67.15	1528	1513
67.16	1572	1513
67.17	1521	1513
67.18	1552	1513
67.19	1546	1512
67.2	1569	1512
67.21	1547	1512
67.22	1515	1512
67.23	1547	1511
67.24	1562	1511
67.25	1555	1511
67.26	1575	1510
67.27	1577	1510
67.28	1550	1510
67.29	1548	1510
67.3	1566	1509
67.31	1571	1509
67.32	1563	1509
67.33	1566	1508
67.34	1521	1508
67.35	1559	1508
67.36	1525	1508
67.37	1541	1507
67.38	1557	1507
67.39	1556	1507
67.4	1539	1507
67.41	1573	1506
67.42	1533	1506
67.43	1518	1506
67.44	1524	1505
67.45	1539	1505
67.46	1551	1505
67.47	1557	1505
67.48	1528	1504
67.49	1553	1504
67.5	1577	1504
67.51	1538	1504
67.52	1541	1503
67.53	1539	1503
67.54	1549	1503
67.55	1553	1502
67.56	1581	1502
67.57	1587	1502
67.58	1558	1502
67.59	1553	1501
67.6	1561	1501
67.61	1574	1501
67.62	1550	1501
67.63	1575	1500
67.64	1570	1500
67.65	1540	1500
67.66	1541	1499
67.67	1546	1499
67.68	1508	1499
67.69	1520	1499
67.7	1559	1498
67.71	1556	1498
67.72	1561	1498
67.73	1590	1498
67.74	1530	1497
67.75	1547	1497
67.76	1555	1497
67.77	1562	1496
67.78	1570	1496
67.79	1507	1496
67.8	1554	1496
67.81	1556	1495
67.82	1553	1495
67.83	1537	1495
67.84	1524	1495
67.85	1512	1494
67.86	1543	1494
67.87	1575	1494
67.88	1595	1494
67.89	1608	1493
67.9	1579	1493
67.91	1578	1493
67.92	1567	1492
67.93	1546	1492
67.94	1558	1492
67.95	1567	1492
67.96	1548	1491
67.97	1548	1491
67.98	1536	1491
67.99	1564	1491
68.0	1566	1490
68.01	1545	1490
68.02	1525	1490
68.03	1518	1490
68.04	1571	1489
68.05	1551	1489
68.06	1519	1489
68.07	1529	1489
68.08	1569	1488
68.09	1547	1488
68.1	1523	1488
68.11	1520	1487
68.12	1518	1487
68.13	1553	1487
68.14	1546	1487
68.15	1506	1486
68.16	1521	1486
68.17	1566	1486
68.18	1607	1486
68.19	1552	1485
68.2	1540	1485
68.21	1552	1485
68.22	1586	1485
68.23	1561	1484
68.24	1535	1484
68.25	1568	1484
68.26	1534	1484
68.27	1522	1483
68.28	1517	1483
68.29	1546	1483
68.3	1562	1483
68.31	1593	1482
68.32	1577	1482
68.33	1560	1482
68.34	1635	1482
68.35	1561	1481
68.36	1500	1481
68.37	1527	1481
68.38	1541	1481
68.39	1575	1480
68.4	1553	1480
68.41	1520	1480
68.42	1595	1479
68.43	1564	1479
68.44	1567	1479
68.45	1537	1479
68.46	1522	1478
68.47	1520	1478
68.48	1557	1478
68.49	1528	1478
68.5	1608	1477
68.51	1624	1477
68.52	1606	1477
68.53	1582	1477
68.54	1553	1476
68.55	1597	1476
68.56	1614	1476
68.57	1557	1476
68.58	1590	1475
68.59	1616	1475
68.6	1620	1475
68.61	1571	1475
68.62	1619	1475
68.63	1642	1474
68.64	1581	1474
68.65	1628	1474
68.66	1641	1474
68.67	1670	1473
68.68	1732	1473
68.69	1718	1473
68.7	1694	1473
68.71	1713	1472
68.72	1741	1472
68.73	1739	1472
68.74	1779	1472
68.75	1803	1471
68.76	1843	1471
68.77	1875	1471
68.78	1920	1471
68.79	1946	1470
68.8	1913	1470
68.81	1953	1470
68.82	2061	1470
68.83	2134	1469
68.84	2136	1469
68.85	2142	1469
68.86	2193	1469
68.87	2192	1468
68.88	2233	1468
68.89	2328	1468
68.9	2368	1468
68.91	2306	1468
68.92	2339	1467
68.93	2389	1467
68.94	2344	1467
68.95	2337	1467
68.96	2332	1466
68.97	2364	1466
68.98	2313	1466
68.99	2295	1466
69.0	2302	1465
69.01	2265	1465
69.02	2284	1465
69.03	2233	1465
69.04	2218	1464
69.05	2127	1464
69.06	2160	1464
69.07	2129	1464
69.08	2136	1464
69.09	2166	1463
69.1	2157	1463
69.11	2118	1463
69.12	2115	1463
69.13	2076	1462
69.14	2036	1462
69.15	2034	1462
69.16	2016	1462
69.17	1936	1462
69.18	1936	1461
69.19	1910	1461
69.2	1880	1461
69.21	1852	1461
69.22	1877	1460
69.23	1796	1460
69.24	1723	1460
69.25	1722	1460
69.26	1775	1460
69.27	1786	1459
69.28	1689	1459
69.29	1678	1459
69.3	1660	1459
69.31	1670	1458
69.32	1662	1458
69.33	1712	1458
69.34	1687	1458
69.35	1598	1458
69.36	1614	1457
69.37	1599	1457
69.38	1581	1457
69.39	1581	1457
69.4	1552	1456
69.41	1568	1456
69.42	1574	1456
69.43	1563	1456
69.44	1572	1456
69.45	1580	1455
69.46	1547	1455
69.47	1602	1455
69.48	1597	1455
69.49	1574	1455
69.5	1555	1454
69.51	1512	1454
69.52	1502	1454
69.53	1503	1454
69.54	1524	1454
69.55	1555	1453
69.56	1570	1453
69.57	1584	1453
69.58	1562	1453
69.59	1551	1453
69.6	1521	1452
69.61	1499	1452
69.62	1548	1452
69.63	1551	1452
69.64	1526	1451
69.65	1500	1451
69.66	1515	1451
69.67	1578	1451
69.68	1511	1451
69.69	1508	1450
69.7	1515	1450
69.71	1524	1450
69.72	1515	1450
69.73	1511	1450
69.74	1524	1450
69.75	1510	1449
69.76	1516	1449
69.77	1533	1449
69.78	1497	1449
69.79	1528	1449
69.8	1539	1448
69.81	1487	1448
69.82	1499	1448
69.83	1536	1448
69.84	1484	1448
69.85	1485	1447
69.86	1496	1447
69.87	1538	1447
69.88	1509	1447
69.89	1539	1447
69.9	1523	1446
69.91	1507	1446
69.92	1485	1446
69.93	1525	1446
69.94	1521	1446
69.95	1536	1445
69.96	1519	1445
69.97	1540	1445
69.98	1553	1445
69.99	1534	1445
70.0	1509	1445
70.01	1504	1444
70.02	1537	1444
70.03	1538	1444
70.04	1509	1444
70.05	1526	1444
70.06	1534	1443
70.07	1532	1443
70.08	1547	1443
70.09	1511	1443
70.1	1482	1443
70.11	1487	1443
70.12	1522	1442
70.13	1471	1442
70.14	1444	1442
70.15	1492	1442
70.16	1529	1442
70.17	1529	1442
70.18	1476	1441
70.19	1459	1441
70.2	1491	1441
70.21	1506	1441
70.22	1513	1441
70.23	1482	1441
70.24	1512	1440
70.25	1523	1440
70.26	1524	1440
70.27	1521	1440
70.28	1498	1440
70.29	1507	1440
70.3	1504	1439
70.31	1510	1439
70.32	1522	1439
70.33	1505	1439
70.34	1547	1439
70.35	1536	1439
70.36	1518	1438
70.37	1499	1438
70.38	1536	1438
70.39	1505	1438
70.4	1460	1438
70.41	1520	1438
70.42	1557	1437
70.43	1521	1437
70.44	1512	1437
70.45	1467	1437
70.46	1498	1437
70.47	1478	1437
70.48	1559	1437
70.49	1531	1436
70.5	1536	1436
70.51	1563	1436
70.52	1503	1436
70.53	1517	1436
70.54	1525	1436
70.55	1502	1436
70.56	1484	1435
70.57	1553	1435
70.58	1530	1435
70.59	1517	1435
70.6	1522	1435
70.61	1504	1435
70.62	1483	1434
70.63	1455	1434
70.64	1406	1434
70.65	1453	1434
70.66	1466	1434
70.67	1488	1434
70.68	1530	1434
70.69	1531	1434
70.7	1475	1433
70.71	1486	1433
70.72	1476	1433
70.73	1565	1433
70.74	1576	1433
70.75	1519	1433
70.76	1543	1433
70.77	1557	1432
70.78	1491	1432
70.79	1497	1432
70.8	1498	1432
70.81	1475	1432
70.82	1463	1432
70.83	1483	1432
70.84	1536	1432
70.85	1483	1431
70.86	1458	1431
70.87	1485	1431
70.88	1472	1431
70.89	1462	1431
70.9	1506	1431
70.91	1483	1431
70.92	1477	1431
70.93	1507	1430
70.94	1479	1430
70.95	1511	1430
70.96	1489	1430
70.97	1460	1430
70.98	1486	1430
70.99	1494	1430
71.0	1519	1430
71.01	1513	1429
71.02	1498	1429
71.03	1512	1429
71.04	1495	1429
71.05	1479	1429
71.06	1484	1429
71.07	1501	1429
71.08	1502	1429
71.09	1496	1429
71.1	1453	1428
71.11	1500	1428
71.12	1507	1428
71.13	1496	1428
71.14	1541	1428
71.15	1539	1428
71.16	1514	1428
71.17	1511	1428
71.18	1515	1428
71.19	1534	1427
71.2	1542	1427
71.21	1507	1427
71.22	1488	1427
71.23	1517	1427
71.24	1502	1427
71.25	1489	1427
71.26	1495	1427
71.27	1485	1427
71.28	1476	1427
71.29	1496	1426
71.3	1485	1426
71.31	1486	1426
71.32	1501	1426
71.33	1510	1426
71.34	1504	1426
71.35	1481	1426
71.36	1494	1426
71.37	1482	1426
71.38	1475	1426
71.39	1509	1425
71.4	1496	1425
71.41	1449	1425
71.42	1451	1425
71.43	1508	1425
71.44	1498	1425
71.45	1509	1425
71.46	1493	1425
71.47	1491	1425
71.48	1485	1425
71.49	1501	1425
71.5	1471	1424
71.51	1480	1424
71.52	1500	1424
71.53	1549	1424
71.54	1492	1424
71.55	1456	1424
71.56	1523	1424
71.57	1494	1424
71.58	1523	1424
71.59	1487	1424
71.6	1504	1424
71.61	1473	1424
71.62	1460	1423
71.63	1460	1423
71.64	1481	1423
71.65	1457	1423
71.66	1460	1423
71.67	1495	1423
71.68	1480	1423
71.69	1476	1423
71.7	1449	1423
71.71	1436	1423
71.72	1418	1423
71.73	1458	1423
71.74	1452	1423
71.75	1485	1422
71.76	1517	1422
71.77	1491	1422
71.78	1528	1422
71.79	1514	1422
71.8	1504	1422
71.81	1473	1422
71.82	1459	1422
71.83	1451	1422
71.84	1445	1422
71.85	1476	1422
71.86	1532	1422
71.87	1505	1422
71.88	1490	1422
71.89	1491	1421
71.9	1484	1421
71.91	1438	1421
71.92	1394	1421
71.93	1429	1421
71.94	1441	1421
71.95	1447	1421
71.96	1445	1421
71.97	1473	1421
71.98	1532	1421
71.99	1499	1421
72.0	1450	1421
72.01	1506	1421
72.02	1465	1421
72.03	1483	1421
72.04	1499	1420
72.05	1471	1420
72.06	1481	1420
72.07	1513	1420
72.08	1485	1420
72.09	1482	1420
72.1	1511	1420
72.11	1426	1420
72.12	1442	1420
72.13	1465	1420
72.14	1481	1420
72.15	1479	1420
72.16	1472	1420
72.17	1485	1420
72.18	1482	1420
72.19	1442	1420
72.2	1461	1420
72.21	1470	1420
72.22	1480	1419
72.23	1486	1419
72.24	1442	1419
72.25	1490	1419
72.26	1453	1419
72.27	1479	1419
72.28	1505	1419
72.29	1441	1419
72.3	1429	1419
72.31	1429	1419
72.32	1470	1419
72.33	1493	1419
72.34	1480	1419
72.35	1467	1419
72.36	1472	1419
72.37	1474	1419
72.38	1426	1419
72.39	1426	1419
72.4	1480	1419
72.41	1485	1418
72.42	1479	1418
72.43	1476	1418
72.44	1505	1418
72.45	1504	1418
72.46	1413	1418
72.47	1436	1418
72.48	1434	1418
72.49	1450	1418
72.5	1465	1418
72.51	1522	1418
72.52	1521	1418
72.53	1504	1418
72.54	1484	1418
72.55	1466	1418
72.56	1490	1418
72.57	1440	1418
72.58	1436	1418
72.59	1433	1418
72.6	1504	1418
72.61	1478	1418
72.62	1446	1418
72.63	1468	1418
72.64	1472	1417
72.65	1497	1417
72.66	1498	1417
72.67	1435	1417
72.68	1480	1417
72.69	1515	1417
72.7	1492	1417
72.71	1477	1417
72.72	1457	1417
72.73	1445	1417
72.74	1433	1417
72.75	1433	1417
72.76	1433	1417
72.77	1456	1417
72.78	1465	1417
72.79	1463	1417
72.8	1501	1417
72.81	1449	1417
72.82	1452	1417
72.83	1454	1417
72.84	1468	1417
72.85	1497	1417
72.86	1478	1417
72.87	1470	1417
72.88	1463	1417
72.89	1536	1417
72.9	1506	1417
72.91	1508	1417
72.92	1484	1416
72.93	1426	1416
72.94	1474	1416
72.95	1462	1416
72.96	1455	1416
72.97	1483	1416
72.98	1492	1416
72.99	1468	1416
73.0	1432	1416
73.01	1441	1416
73.02	1453	1416
73.03	1481	1416
73.04	1529	1416
73.05	1475	1416
73.06	1447	1416
73.07	1468	1416
73.08	1432	1416
73.09	1469	1416
73.1	1510	1416
73.11	1521	1416
73.12	1494	1416
73.13	1460	1416
73.14	1462	1416
73.15	1443	1416
73.16	1445	1416
73.17	1473	1416
73.18	1493	1416
73.19	1481	1416
73.2	1456	1416
73.21	1460	1416
73.22	1441	1416
73.23	1406	1416
73.24	1446	1416
73.25	1488	1416
73.26	1495	1416
73.27	1497	1416
73.28	1514	1416
73.29	1471	1415
73.3	1439	1415
73.31	1449	1415
73.32	1471	1415
73.33	1503	1415
73.34	1531	1415
73.35	1521	1415
73.36	1471	1415
73.37	1468	1415
73.38	1493	1415
73.39	1446	1415
73.4	1436	1415
73.41	1419	1415
73.42	1457	1415
73.43	1465	1415
73.44	1489	1415
73.45	1455	1415
73.46	1447	1415
73.47	1452	1415
73.48	1487	1415
73.49	1463	1415
73.5	1433	1415
73.51	1504	1415
73.52	1516	1415
73.53	1488	1415
73.54	1477	1415
73.55	1465	1415
73.56	1456	1415
73.57	1477	1415
73.58	1468	1415
73.59	1452	1415
73.6	1446	1415
73.61	1466	1415
73.62	1452	1415
73.63	1439	1415
73.64	1445	1415
73.65	1433	1415
73.66	1436	1415
73.67	1472	1415
73.68	1487	1415
73.69	1436	1415
73.7	1478	1415
73.71	1494	1415
73.72	1421	1415
73.73	1472	1415
73.74	1452	1415
73.75	1432	1415
73.76	1439	1415
73.77	1474	1415
73.78	1465	1415
73.79	1432	1414
73.8	1419	1414
73.81	1454	1414
73.82	1471	1414
73.83	1476	1414
73.84	1483	1414
73.85	1477	1414
73.86	1470	1414
73.87	1471	1414
73.88	1465	1414
73.89	1472	1414
73.9	1440	1414
73.91	1459	1414
73.92	1441	1414
73.93	1472	1414
73.94	1467	1414
73.95	1465	1414
73.96	1453	1414
73.97	1412	1414
73.98	1438	1414
73.99	1452	1414
74.0	1495	1414
74.01	1485	1414
74.02	1499	1414
74.03	1467	1414
74.04	1441	1414
74.05	1463	1414
74.06	1499	1414
74.07	1466	1414
74.08	1465	1414
74.09	1490	1414
74.1	1489	1414
74.11	1438	1414
74.12	1432	1414
74.13	1472	1414
74.14	1459	1414
74.15	1452	1414
74.16	1467	1414
74.17	1439	1414
74.18	1416	1414
74.19	1459	1414
74.2	1481	1414
74.21	1474	1414
74.22	1479	1414
74.23	1444	1414
74.24	1449	1414
74.25	1444	1414
74.26	1435	1414
74.27	1475	1414
74.28	1452	1414
74.29	1443	1414
74.3	1442	1414
74.31	1447	1414
74.32	1406	1414
74.33	1456	1414
74.34	1511	1414
74.35	1515	1414
74.36	1469	1414
74.37	1470	1414
74.38	1459	1414
74.39	1441	1414
74.4	1444	1414
74.41	1450	1414
74.42	1456	1414
74.43	1447	1414
74.44	1456	1414
74.45	1451	1413
74.46	1460	1413
74.47	1452	1413
74.48	1427	1413
74.49	1425	1413
74.5	1418	1413
74.51	1451	1413
74.52	1471	1413
74.53	1435	1413
74.54	1484	1413
74.55	1490	1413
74.56	1474	1413
74.57	1458	1413
74.58	1468	1413
74.59	1519	1413
74.6	1473	1413
74.61	1415	1413
74.62	1462	1413
74.63	1406	1413
74.64	1417	1413
74.65	1432	1413
74.66	1448	1413
74.67	1487	1413
74.68	1506	1413
74.69	1445	1413
74.7	1483	1413
74.71	1517	1413
74.72	1412	1413
74.73	1481	1413
74.74	1524	1413
74.75	1495	1413
74.76	1454	1413
74.77	1448	1413
74.78	1462	1413
74.79	1433	1413
74.8	1428	1413
74.81	1460	1413
74.82	1490	1413
74.83	1465	1413
74.84	1477	1413
74.85	1465	1413
74.86	1475	1413
74.87	1468	1413
74.88	1448	1413
74.89	1407	1413
74.9	1448	1413
74.91	1492	1413
74.92	1449	1413
74.93	1435	1413
74.94	1442	1413
74.95	1487	1413
74.96	1455	1413
74.97	1483	1413
74.98	1508	1413
74.99	1494	1413
75.0	1438	1413
75.01	1430	1413
75.02	1474	1413
75.03	1474	1412
75.04	1485	1412
75.05	1497	1412
75.06	1443	1412
75.07	1436	1412
75.08	1415	1412
75.09	1434	1412
75.1	1490	1412
75.11	1438	1412
75.12	1389	1412
75.13	1454	1412
75.14	1486	1412
75.15	1441	1412
75.16	1404	1412
75.17	1462	1412
75.18	1503	1412
75.19	1447	1412
75.2	1452	1412
75.21	1447	1412
75.22	1445	1412
75.23	1437	1412
75.24	1466	1412
75.25	1467	1412
75.26	1469	1412
75.27	1466	1412
75.28	1472	1412
75.29	1528	1412
75.3	1469	1412
75.31	1459	1412
75.32	1454	1412
75.33	1431	1412
75.34	1442	1412
75.35	1483	1412
75.36	1469	1412
75.37	1433	1412
75.38	1409	1412
75.39	1497	1412
75.4	1471	1412
75.41	1440	1412
75.42	1422	1412
75.43	1476	1412
75.44	1475	1411
75.45	1433	1411
75.46	1454	1411
75.47	1465	1411
75.48	1468	1411
75.49	1448	1411
75.5	1427	1411
75.51	1445	1411
75.52	1455	1411
75.53	1440	1411
75.54	1403	1411
75.55	1439	1411
75.56	1468	1411
75.57	1464	1411
75.58	1432	1411
75.59	1453	1411
75.6	1437	1411
75.61	1450	1411
75.62	1421	1411
75.63	1406	1411
75.64	1453	1411
75.65	1482	1411
75.66	1478	1411
75.67	1465	1411
75.68	1493	1411
75.69	1470	1411
75.7	1462	1411
75.71	1477	1411
75.72	1448	1411
75.73	1471	1411
75.74	1466	1410
75.75	1423	1410
75.76	1430	1410
75.77	1428	1410
75.78	1439	1410
75.79	1446	1410
75.8	1447	1410
75.81	1434	1410
75.82	1494	1410
75.83	1464	1410
75.84	1413	1410
75.85	1417	1410
75.86	1435	1410
75.87	1441	1410
75.88	1398	1410
75.89	1369	1410
75.9	1448	1410
75.91	1454	1410
75.92	1477	1410
75.93	1482	1410
75.94	1479	1410
75.95	1463	1410
75.96	1437	1410
75.97	1474	1410
75.98	1470	1410
75.99	1424	1409
76.0	1414	1409
76.01	1405	1409
76.02	1411	1409
76.03	1451	1409
76.04	1454	1409
76.05	1510	1409
76.06	1459	1409
76.07	1488	1409
76.08	1459	1409
76.09	1420	1409
76.1	1417	1409
76.11	1426	1409
76.12	1419	1409
76.13	1443	1409
76.14	1439	1409
76.15	1444	1409
76.16	1460	1409
76.17	1477	1409
76.18	1449	1409
76.19	1413	1409
76.2	1420	1408
76.21	1420	1408
76.22	1454	1408
76.23	1410	1408
76.24	1456	1408
76.25	1462	1408
76.26	1439	1408
76.27	1484	1408
76.28	1507	1408
76.29	1445	1408
76.3	1451	1408
76.31	1435	1408
76.32	1472	1408
76.33	1472	1408
76.34	1455	1408
76.35	1433	1408
76.36	1425	1408
76.37	1407	1408
76.38	1445	1408
76.39	1442	1407
76.4	1431	1407
76.41	1415	1407
76.42	1448	1407
76.43	1444	1407
76.44	1439	1407
76.45	1456	1407
76.46	1453	1407
76.47	1407	1407
76.48	1395	1407
76.49	1372	1407
76.5	1393	1407
76.51	1441	1407
76.52	1460	1407
76.53	1449	1407
76.54	1442	1407
76.55	1401	1407
76.56	1396	1406
76.57	1422	1406
76.58	1435	1406
76.59	1413	1406
76.6	1443	1406
76.61	1443	1406
76.62	1421	1406
76.63	1438	1406
76.64	1483	1406
76.65	1484	1406
76.66	1436	1406
76.67	1409	1406
76.68	1447	1406
76.69	1448	1406
76.7	1463	1406
76.71	1454	1405
76.72	1423	1405
76.73	1419	1405
76.74	1412	1405
76.75	1413	1405
76.76	1449	1405
76.77	1476	1405
76.78	1439	1405
76.79	1429	1405
76.8	1434	1405
76.81	1434	1405
76.82	1440	1405
76.83	1456	1405
76.84	1463	1405
76.85	1413	1405
76.86	1483	1404
76.87	1495	1404
76.88	1443	1404
76.89	1388	1404
76.9	1418	1404
76.91	1420	1404
76.92	1414	1404
76.93	1403	1404
76.94	1430	1404
76.95	1376	1404
76.96	1381	1404
76.97	1409	1404
76.98	1409	1404
76.99	1447	1404
77.0	1461	1403
77.01	1450	1403
77.02	1422	1403
77.03	1402	1403
77.04	1432	1403
77.05	1424	1403
77.06	1440	1403
77.07	1443	1403
77.08	1392	1403
77.09	1432	1403
77.1	1447	1403
77.11	1417	1403
77.12	1442	1403
77.13	1476	1402
77.14	1445	1402
77.15	1448	1402
77.16	1437	1402
77.17	1428	1402
77.18	1447	1402
77.19	1480	1402
77.2	1519	1402
77.21	1464	1402
77.22	1409	1402
77.23	1451	1402
77.24	1476	1402
77.25	1508	1402
77.26	1474	1401
77.27	1482	1401
77.28	1496	1401
77.29	1480	1401
77.3	1442	1401
77.31	1474	1401
77.32	1496	1401
77.33	1493	1401
77.34	1456	1401
77.35	1484	1401
77.36	1502	1401
77.37	1497	1401
77.38	1505	1400
77.39	1482	1400
77.4	1485	1400
77.41	1508	1400
77.42	1563	1400
77.43	1557	1400
77.44	1528	1400
77.45	1524	1400
77.46	1541	1400
77.47	1531	1400
77.48	1508	1400
77.49	1539	1400
77.5	1564	1399
77.51	1597	1399
77.52	1596	1399
77.53	1535	1399
77.54	1511	1399
77.55	1556	1399
77.56	1585	1399
77.57	1544	1399
77.58	1559	1399
77.59	1547	1399
77.6	1569	1399
77.61	1624	1398
77.62	1609	1398
77.63	1582	1398
77.64	1586	1398
77.65	1583	1398
77.66	1614	1398
77.67	1575	1398
77.68	1579	1398
77.69	1603	1398
77.7	1552	1398
77.71	1527	1398
77.72	1641	1397
77.73	1628	1397
77.74	1648	1397
77.75	1665	1397
77.76	1697	1397
77.77	1668	1397
77.78	1687	1397
77.79	1698	1397
77.8	1698	1397
77.81	1666	1397
77.82	1670	1397
77.83	1713	1396
77.84	1709	1396
77.85	1665	1396
77.86	1706	1396
77.87	1683	1396
77.88	1657	1396
77.89	1660	1396
77.9	1617	1396
77.91	1598	1396
77.92	1610	1396
77.93	1615	1396
77.94	1600	1395
77.95	1603	1395
77.96	1603	1395
77.97	1608	1395
77.98	1610	1395
77.99	1623	1395
78.0	1636	1395
78.01	1628	1395
78.02	1576	1395
78.03	1600	1395
78.04	1673	1394
78.05	1684	1394
78.06	1623	1394
78.07	1588	1394
78.08	1577	1394
78.09	1587	1394
78.1	1610	1394
78.11	1574	1394
78.12	1551	1394
78.13	1509	1394
78.14	1509	1393
78.15	1508	1393
78.16	1516	1393
78.17	1566	1393
78.18	1550	1393
78.19	1511	1393
78.2	1538	1393
78.21	1525	1393
78.22	1520	1393
78.23	1522	1393
78.24	1526	1392
78.25	1493	1392
78.26	1517	1392
78.27	1557	1392
78.28	1529	1392
78.29	1520	1392
78.3	1562	1392
78.31	1619	1392
78.32	1625	1392
78.33	1607	1392
78.34	1518	1391
78.35	1583	1391
78.36	1629	1391
78.37	1591	1391
78.38	1589	1391
78.39	1548	1391
78.4	1571	1391
78.41	1558	1391
78.42	1565	1391
78.43	1590	1390
78.44	1587	1390
78.45	1614	1390
78.46	1588	1390
78.47	1563	1390
78.48	1588	1390
78.49	1569	1390
78.5	1586	1390
78.51	1579	1390
78.52	1574	1389
78.53	1579	1389
78.54	1539	1389
78.55	1534	1389
78.56	1566	1389
78.57	1542	1389
78.58	1572	1389
78.59	1596	1389
78.6	1578	1389
78.61	1550	1389
78.62	1547	1388
78.63	1571	1388
78.64	1573	1388
78.65	1558	1388
78.66	1569	1388
78.67	1570	1388
78.68	1615	1388
78.69	1545	1388
78.7	1548	1388
78.71	1519	1387
78.72	1510	1387
78.73	1535	1387
78.74	1543	1387
78.75	1524	1387
78.76	1543	1387
78.77	1519	1387
78.78	1500	1387
78.79	1518	1387
78.8	1548	1386
78.81	1535	1386
78.82	1518	1386
78.83	1518	1386
78.84	1490	1386
78.85	1525	1386
78.86	1549	1386
78.87	1558	1386
78.88	1533	1385
78.89	1505	1385
78.9	1489	1385
78.91	1473	1385
78.92	1502	1385
78.93	1538	1385
78.94	1501	1385
78.95	1530	1385
78.96	1538	1385
78.97	1474	1384
78.98	1467	1384
78.99	1470	1384
79.0	1484	1384
79.01	1493	1384
79.02	1497	1384
79.03	1502	1384
79.04	1472	1384
79.05	1482	1384
79.06	1480	1383
79.07	1433	1383
79.08	1490	1383
79.09	1528	1383
79.1	1499	1383
79.11	1461	1383
79.12	1464	1383
79.13	1482	1383
79.14	1476	1382
79.15	1506	1382
79.16	1472	1382
79.17	1406	1382
79.18	1452	1382
79.19	1451	1382
79.2	1442	1382
79.21	1443	1382
79.22	1434	1382
79.23	1473	1381
79.24	1412	1381
79.25	1411	1381
79.26	1429	1381
79.27	1450	1381
79.28	1435	1381
79.29	1424	1381
79.3	1420	1381
79.31	1433	1380
79.32	1435	1380
79.33	1404	1380
79.34	1407	1380
79.35	1417	1380
79.36	1445	1380
79.37	1435	1380
79.38	1431	1380
79.39	1415	1379
79.4	1379	1379
79.41	1391	1379
79.42	1349	1379
79.43	1372	1379
79.44	1411	1379
79.45	1401	1379
79.46	1370	1379
79.47	1408	1378
79.48	1424	1378
79.49	1406	1378
79.5	1371	1378
79.51	1377	1378
79.52	1412	1378
79.53	1447	1378
79.54	1435	1378
79.55	1412	1377
79.56	1405	1377
79.57	1443	1377
79.58	1421	1377
79.59	1397	1377
79.6	1388	1377
79.61	1376	1377
79.62	1399	1377
79.63	1411	1376
79.64	1418	1376
79.65	1363	1376
79.66	1356	1376
79.67	1378	1376
79.68	1415	1376
79.69	1407	1376
79.7	1414	1376
79.71	1438	1375
79.72	1447	1375
79.73	1453	1375
79.74	1449	1375
79.75	1425	1375
79.76	1416	1375
79.77	1388	1375
79.78	1416	1375
79.79	1409	1374
79.8	1406	1374
79.81	1403	1374
79.82	1397	1374
79.83	1429	1374
79.84	1366	1374
79.85	1396	1374
79.86	1406	1374
79.87	1427	1373
79.88	1410	1373
79.89	1391	1373
79.9	1407	1373
79.91	1432	1373
79.92	1411	1373
79.93	1394	1373
79.94	1378	1373
79.95	1369	1372
79.96	1390	1372
79.97	1363	1372
79.98	1335	1372
79.99	1350	1372
80.0	1379	1372
80.01	1390	1372
80.02	1410	1372
80.03	1370	1371
80.04	1352	1371
80.05	1369	1371
80.06	1380	1371
80.07	1413	1371
80.08	1407	1371
80.09	1398	1371
80.1	1412	1370
80.11	1387	1370
80.12	1378	1370
80.13	1451	1370
80.14	1455	1370
80.15	1437	1370
80.16	1418	1370
80.17	1415	1370
80.18	1401	1369
80.19	1386	1369
80.2	1396	1369
80.21	1402	1369
80.22	1388	1369
80.23	1433	1369
80.24	1418	1369
80.25	1363	1368
80.26	1373	1368
80.27	1412	1368
80.28	1435	1368
80.29	1371	1368
80.3	1378	1368
80.31	1352	1368
80.32	1381	1368
80.33	1454	1367
80.34	1422	1367
80.35	1350	1367
80.36	1347	1367
80.37	1378	1367
80.38	1402	1367
80.39	1424	1367
80.4	1400	1366
80.41	1390	1366
80.42	1413	1366
80.43	1439	1366
80.44	1440	1366
80.45	1394	1366
80.46	1383	1366
80.47	1381	1366
80.48	1384	1365
80.49	1405	1365
80.5	1401	1365
80.51	1427	1365
80.52	1403	1365
80.53	1423	1365
80.54	1406	1365
80.55	1417	1364
80.56	1466	1364
80.57	1400	1364
80.58	1369	1364
80.59	1369	1364
80.6	1425	1364
80.61	1436	1364
80.62	1459	1364
80.63	1490	1363
80.64	1473	1363
80.65	1444	1363
80.66	1405	1363
80.67	1442	1363
80.68	1420	1363
80.69	1409	1363
80.7	1387	1362
80.71	1430	1362
80.72	1423	1362
80.73	1400	1362
80.74	1432	1362
80.75	1389	1362
80.76	1373	1362
80.77	1371	1361
80.78	1417	1361
80.79	1447	1361
80.8	1459	1361
80.81	1437	1361
80.82	1371	1361
80.83	1372	1361
80.84	1410	1361
80.85	1419	1360
80.86	1475	1360
80.87	1445	1360
80.88	1454	1360
80.89	1467	1360
80.9	1452	1360
80.91	1449	1360
80.92	1482	1359
80.93	1514	1359
80.94	1513	1359
80.95	1532	1359
80.96	1546	1359
80.97	1541	1359
80.98	1528	1359
80.99	1515	1358
81.0	1544	1358
81.01	1553	1358
81.02	1580	1358
81.03	1587	1358
81.04	1538	1358
81.05	1531	1358
81.06	1590	1357
81.07	1639	1357
81.08	1645	1357
81.09	1597	1357
81.1	1594	1357
81.11	1669	1357
81.12	1690	1357
81.13	1689	1357
81.14	1684	1356
81.15	1713	1356
81.16	1713	1356
81.17	1698	1356
81.18	1652	1356
81.19	1556	1356
81.2	1564	1356
81.21	1607	1355
81.22	1621	1355
81.23	1627	1355
81.24	1624	1355
81.25	1616	1355
81.26	1612	1355
81.27	1587	1355
81.28	1583	1354
81.29	1632	1354
81.3	1633	1354
81.31	1635	1354
81.32	1661	1354
81.33	1666	1354
81.34	1561	1354
81.35	1559	1353
81.36	1613	1353
81.37	1614	1353
81.38	1583	1353
81.39	1628	1353
81.4	1599	1353
81.41	1613	1353
81.42	1601	1352
81.43	1587	1352
81.44	1601	1352
81.45	1592	1352
81.46	1555	1352
81.47	1515	1352
81.48	1528	1352
81.49	1503	1352
81.5	1514	1351
81.51	1571	1351
81.52	1570	1351
81.53	1546	1351
81.54	1548	1351
81.55	1542	1351
81.56	1519	1351
81.57	1499	1350
81.58	1490	1350
81.59	1468	1350
81.6	1482	1350
81.61	1438	1350
81.62	1495	1350
81.63	1519	1350
81.64	1514	1349
81.65	1515	1349
81.66	1494	1349
81.67	1468	1349
81.68	1453	1349
81.69	1466	1349
81.7	1456	1349
81.71	1489	1348
81.72	1477	1348
81.73	1530	1348
81.74	1475	1348
81.75	1473	1348
81.76	1488	1348
81.77	1448	1348
81.78	1423	1347
81.79	1460	1347
81.8	1452	1347
81.81	1509	1347
81.82	1507	1347
81.83	1442	1347
81.84	1410	1347
81.85	1431	1346
81.86	1429	1346
81.87	1439	1346
81.88	1443	1346
81.89	1441	1346
81.9	1416	1346
81.91	1403	1346
81.92	1448	1345
81.93	1464	1345
81.94	1439	1345
81.95	1470	1345
81.96	1461	1345
81.97	1427	1345
81.98	1384	1345
81.99	1408	1344
82.0	1470	1344
82.01	1462	1344
82.02	1483	1344
82.03	1433	1344
82.04	1402	1344
82.05	1409	1344
82.06	1415	1343
82.07	1428	1343
82.08	1419	1343
82.09	1396	1343
82.1	1429	1343
82.11	1443	1343
82.12	1461	1343
82.13	1417	1342
82.14	1452	1342
82.15	1448	1342
82.16	1469	1342
82.17	1467	1342
82.18	1462	1342
82.19	1465	1342
82.2	1480	1341
82.21	1437	1341
82.22	1433	1341
82.23	1416	1341
82.24	1380	1341
82.25	1401	1341
82.26	1418	1341
82.27	1452	1341
82.28	1485	1340
82.29	1440	1340
82.3	1422	1340
82.31	1416	1340
82.32	1458	1340
82.33	1439	1340
82.34	1407	1340
82.35	1407	1339
82.36	1406	1339
82.37	1464	1339
82.38	1478	1339
82.39	1428	1339
82.4	1434	1339
82.41	1430	1339
82.42	1438	1338
82.43	1419	1338
82.44	1454	1338
82.45	1445	1338
82.46	1410	1338
82.47	1461	1338
82.48	1481	1338
82.49	1502	1337
82.5	1461	1337
82.51	1437	1337
82.52	1475	1337
82.53	1464	1337
82.54	1481	1337
82.55	1484	1337
82.56	1492	1336
82.57	1503	1336
82.58	1510	1336
82.59	1519	1336
82.6	1578	1336
82.61	1545	1336
82.62	1560	1336
82.63	1565	1335
82.64	1565	1335
82.65	1566	1335
82.66	1546	1335
82.67	1518	1335
82.68	1489	1335
82.69	1547	1335
82.7	1593	1334
82.71	1576	1334
82.72	1575	1334
82.73	1582	1334
82.74	1645	1334
82.75	1715	1334
82.76	1726	1334
82.77	1719	1333
82.78	1729	1333
82.79	1751	1333
82.8	1812	1333
82.81	1814	1333
82.82	1832	1333
82.83	1837	1333
82.84	1938	1332
82.85	1942	1332
82.86	1908	1332
82.87	1935	1332
82.88	2004	1332
82.89	2059	1332
82.9	2052	1332
82.91	2028	1332
82.92	2054	1331
82.93	2039	1331
82.94	2039	1331
82.95	2002	1331
82.96	1981	1331
82.97	2050	1331
82.98	2053	1331
82.99	2008	1330
83.0	1970	1330
83.01	1972	1330
83.02	1964	1330
83.03	1901	1330
83.04	1882	1330
83.05	1922	1330
83.06	1978	1329
83.07	1931	1329
83.08	1891	1329
83.09	1892	1329
83.1	1871	1329
83.11	1862	1329
83.12	1809	1329
83.13	1849	1328
83.14	1833	1328
83.15	1857	1328
83.16	1890	1328
83.17	1866	1328
83.18	1817	1328
83.19	1844	1328
83.2	1813	1327
83.21	1786	1327
83.22	1784	1327
83.23	1724	1327
83.24	1741	1327
83.25	1728	1327
83.26	1735	1327
83.27	1680	1327
83.28	1683	1326
83.29	1671	1326
83.3	1644	1326
83.31	1590	1326
83.32	1590	1326
83.33	1578	1326
83.34	1532	1326
83.35	1531	1325
83.36	1518	1325
83.37	1506	1325
83.38	1513	1325
83.39	1512	1325
83.4	1503	1325
83.41	1554	1325
83.42	1571	1324
83.43	1502	1324
83.44	1492	1324
83.45	1481	1324
83.46	1431	1324
83.47	1440	1324
83.48	1404	1324
83.49	1455	1324
83.5	1444	1323
83.51	1431	1323
83.52	1401	1323
83.53	1368	1323
83.54	1385	1323
83.55	1398	1323
83.56	1428	1323
83.57	1432	1322
83.58	1446	1322
83.59	1429	1322
83.6	1407	1322
83.61	1386	1322
83.62	1399	1322
83.63	1405	1322
83.64	1411	1321
83.65	1469	1321
83.66	1460	1321
83.67	1412	1321
83.68	1430	1321
83.69	1413	1321
83.7	1422	1321
83.71	1398	1321
83.72	1416	1320
83.73	1401	1320
83.74	1401	1320
83.75	1424	1320
83.76	1373	1320
83.77	1345	1320
83.78	1372	1320
83.79	1406	1319
83.8	1377	1319
83.81	1420	1319
83.82	1410	1319
83.83	1404	1319
83.84	1397	1319
83.85	1396	1319
83.86	1379	1319
83.87	1399	1318
83.88	1352	1318
83.89	1348	1318
83.9	1390	1318
83.91	1403	1318
83.92	1429	1318
83.93	1356	1318
83.94	1357	1317
83.95	1402	1317
83.96	1392	1317
83.97	1383	1317
83.98	1401	1317
83.99	1414	1317
84.0	1383	1317
84.01	1359	1317
84.02	1375	1316
84.03	1356	1316
84.04	1382	1316
84.05	1434	1316
84.06	1397	1316
84.07	1367	1316
84.08	1395	1316
84.09	1391	1315
84.1	1405	1315
84.11	1351	1315
84.12	1358	1315
84.13	1389	1315
84.14	1410	1315
84.15	1385	1315
84.16	1417	1315
84.17	1436	1314
84.18	1450	1314
84.19	1441	1314
84.2	1422	1314
84.21	1413	1314
84.22	1463	1314
84.23	1445	1314
84.24	1391	1314
84.25	1405	1313
84.26	1440	1313
84.27	1436	1313
84.28	1414	1313
84.29	1417	1313
84.3	1453	1313
84.31	1430	1313
84.32	1453	1312
84.33	1461	1312
84.34	1444	1312
84.35	1427	1312
84.36	1463	1312
84.37	1465	1312
84.38	1463	1312
84.39	1456	1312
84.4	1492	1311
84.41	1516	1311
84.42	1515	1311
84.43	1519	1311
84.44	1533	1311
84.45	1564	1311
84.46	1554	1311
84.47	1561	1311
84.48	1574	1310
84.49	1588	1310
84.5	1582	1310
84.51	1557	1310
84.52	1601	1310
84.53	1582	1310
84.54	1582	1310
84.55	1592	1310
84.56	1618	1309
84.57	1656	1309
84.58	1631	1309
84.59	1644	1309
84.6	1669	1309
84.61	1615	1309
84.62	1584	1309
84.63	1642	1309
84.64	1716	1308
84.65	1704	1308
84.66	1649	1308
84.67	1634	1308
84.68	1652	1308
84.69	1637	1308
84.7	1573	1308
84.71	1594	1308
84.72	1615	1307
84.73	1600	1307
84.74	1616	1307
84.75	1588	1307
84.76	1583	1307
84.77	1561	1307
84.78	1605	1307
84.79	1612	1307
84.8	1591	1306
84.81	1601	1306
84.82	1574	1306
84.83	1551	1306
84.84	1573	1306
84.85	1570	1306
84.86	1540	1306
84.87	1534	1306
84.88	1506	1305
84.89	1541	1305
84.9	1542	1305
84.91	1518	1305
84.92	1528	1305
84.93	1475	1305
84.94	1491	1305
84.95	1500	1305
84.96	1555	1304
84.97	1496	1304
84.98	1477	1304
84.99	1491	1304
85.0	1459	1304
85.01	1449	1304
85.02	1465	1304
85.03	1471	1304
85.04	1481	1304
85.05	1494	1303
85.06	1447	1303
85.07	1432	1303
85.08	1428	1303
85.09	1461	1303
85.1	1429	1303
85.11	1396	1303
85.12	1452	1303
85.13	1434	1302
85.14	1393	1302
85.15	1444	1302
85.16	1461	1302
85.17	1430	1302
85.18	1444	1302
85.19	1406	1302
85.2	1409	1302
85.21	1378	1302
85.22	1384	1301
85.23	1402	1301
85.24	1401	1301
85.25	1375	1301
85.26	1367	1301
85.27	1382	1301
85.28	1386	1301
85.29	1361	1301
85.3	1353	1300
85.31	1377	1300
85.32	1376	1300
85.33	1369	1300
85.34	1372	1300
85.35	1357	1300
85.36	1334	1300
85.37	1343	1300
85.38	1350	1300
85.39	1387	1299
85.4	1399	1299
85.41	1381	1299
85.42	1360	1299
85.43	1361	1299
85.44	1362	1299
85.45	1355	1299
85.46	1320	1299
85.47	1340	1298
85.48	1395	1298
85.49	1393	1298
85.5	1388	1298
85.51	1381	1298
85.52	1375	1298
85.53	1402	1298
85.54	1428	1298
85.55	1435	1298
85.56	1367	1297
85.57	1355	1297
85.58	1362	1297
85.59	1354	1297
85.6	1382	1297
85.61	1385	1297
85.62	1356	1297
85.63	1370	1297
85.64	1389	1297
85.65	1453	1296
85.66	1391	1296
85.67	1372	1296
85.68	1421	1296
85.69	1434	1296
85.7	1389	1296
85.71	1358	1296
85.72	1383	1296
85.73	1397	1296
85.74	1361	1295
85.75	1399	1295
85.76	1415	1295
85.77	1385	1295
85.78	1399	1295
85.79	1421	1295
85.8	1398	1295
85.81	1415	1295
85.82	1398	1295
85.83	1353	1295
85.84	1357	1294
85.85	1374	1294
85.86	1398	1294
85.87	1472	1294
85.88	1449	1294
85.89	1413	1294
85.9	1439	1294
85.91	1441	1294
85.92	1435	1294
85.93	1461	1293
85.94	1478	1293
85.95	1455	1293
85.96	1402	1293
85.97	1422	1293
85.98	1444	1293
85.99	1484	1293
86.0	1508	1293
86.01	1465	1293
86.02	1427	1292
86.03	1412	1292
86.04	1381	1292
86.05	1383	1292
86.06	1418	1292
86.07	1426	1292
86.08	1441	1292
86.09	1434	1292
86.1	1410	1292
86.11	1411	1292
86.12	1422	1291
86.13	1419	1291
86.14	1392	1291
86.15	1400	1291
86.16	1420	1291
86.17	1448	1291
86.18	1464	1291
86.19	1439	1291
86.2	1426	1291
86.21	1449	1291
86.22	1437	1290
86.23	1438	1290
86.24	1441	1290
86.25	1397	1290
86.26	1381	1290
86.27	1407	1290
86.28	1426	1290
86.29	1396	1290
86.3	1404	1290
86.31	1407	1290
86.32	1399	1289
86.33	1409	1289
86.34	1396	1289
86.35	1373	1289
86.36	1395	1289
86.37	1391	1289
86.38	1402	1289
86.39	1409	1289
86.4	1418	1289
86.41	1386	1289
86.42	1411	1288
86.43	1395	1288
86.44	1367	1288
86.45	1397	1288
86.46	1355	1288
86.47	1352	1288
86.48	1375	1288
86.49	1398	1288
86.5	1409	1288
86.51	1388	1288
86.52	1344	1287
86.53	1337	1287
86.54	1384	1287
86.55	1401	1287
86.56	1397	1287
86.57	1381	1287
86.58	1386	1287
86.59	1369	1287
86.6	1339	1287
86.61	1291	1287
86.62	1339	1287
86.63	1347	1286
86.64	1329	1286
86.65	1338	1286
86.66	1342	1286
86.67	1332	1286
86.68	1347	1286
86.69	1345	1286
86.7	1337	1286
86.71	1335	1286
86.72	1332	1286
86.73	1332	1285
86.74	1335	1285
86.75	1326	1285
86.76	1329	1285
86.77	1348	1285
86.78	1351	1285
86.79	1360	1285
86.8	1368	1285
86.81	1395	1285
86.82	1374	1285
86.83	1367	1285
86.84	1366	1284
86.85	1366	1284
86.86	1354	1284
86.87	1345	1284
86.88	1370	1284
86.89	1416	1284
86.9	1375	1284
86.91	1338	1284
86.92	1339	1284
86.93	1324	1284
86.94	1317	1284
86.95	1319	1284
86.96	1358	1283
86.97	1382	1283
86.98	1369	1283
86.99	1331	1283
87.0	1323	1283
87.01	1308	1283
87.02	1318	1283
87.03	1360	1283
87.04	1343	1283
87.05	1317	1283
87.06	1301	1283
87.07	1362	1282
87.08	1354	1282
87.09	1346	1282
87.1	1338	1282
87.11	1332	1282
87.12	1354	1282
87.13	1379	1282
87.14	1365	1282
87.15	1346	1282
87.16	1357	1282
87.17	1350	1282
87.18	1330	1282
87.19	1329	1281
87.2	1354	1281
87.21	1334	1281
87.22	1355	1281
87.23	1371	1281
87.24	1325	1281
87.25	1330	1281
87.26	1335	1281
87.27	1311	1281
87.28	1315	1281
87.29	1337	1281
87.3	1283	1281
87.31	1268	1281
87.32	1343	1280
87.33	1365	1280
87.34	1323	1280
87.35	1317	1280
87.36	1336	1280
87.37	1338	1280
87.38	1340	1280
87.39	1353	1280
87.4	1337	1280
87.41	1328	1280
87.42	1345	1280
87.43	1343	1280
87.44	1307	1279
87.45	1335	1279
87.46	1366	1279
87.47	1346	1279
87.48	1320	1279
87.49	1300	1279
87.5	1279	1279
87.51	1304	1279
87.52	1315	1279
87.53	1322	1279
87.54	1320	1279
87.55	1327	1279
87.56	1327	1279
87.57	1320	1279
87.58	1325	1278
87.59	1338	1278
87.6	1333	1278
87.61	1291	1278
87.62	1278	1278
87.63	1323	1278
87.64	1346	1278
87.65	1325	1278
87.66	1326	1278
87.67	1296	1278
87.68	1299	1278
87.69	1343	1278
87.7	1377	1278
87.71	1359	1277
87.72	1299	1277
87.73	1291	1277
87.74	1307	1277
87.75	1324	1277
87.76	1345	1277
87.77	1348	1277
87.78	1350	1277
87.79	1359	1277
87.8	1364	1277
87.81	1352	1277
87.82	1336	1277
87.83	1304	1277
87.84	1314	1277
87.85	1336	1277
87.86	1315	1276
87.87	1326	1276
87.88	1329	1276
87.89	1328	1276
87.9	1337	1276
87.91	1376	1276
87.92	1358	1276
87.93	1315	1276
87.94	1315	1276
87.95	1331	1276
87.96	1318	1276
87.97	1324	1276
87.98	1327	1276
87.99	1324	1276
88.0	1309	1276
88.01	1303	1275
88.02	1328	1275
88.03	1325	1275
88.04	1315	1275
88.05	1321	1275
88.06	1328	1275
88.07	1368	1275
88.08	1344	1275
88.09	1323	1275
88.1	1345	1275
88.11	1318	1275
88.12	1300	1275
88.13	1258	1275
88.14	1292	1275
88.15	1303	1275
88.16	1315	1275
88.17	1314	1274
88.18	1308	1274
88.19	1303	1274
88.2	1318	1274
88.21	1333	1274
88.22	1349	1274
88.23	1348	1274
88.24	1348	1274
88.25	1351	1274
88.26	1326	1274
88.27	1293	1274
88.28	1290	1274
88.29	1306	1274
88.3	1326	1274
88.31	1330	1274
88.32	1333	1274
88.33	1351	1274
88.34	1336	1274
88.35	1300	1273
88.36	1302	1273
88.37	1309	1273
88.38	1320	1273
88.39	1294	1273
88.4	1280	1273
88.41	1288	1273
88.42	1296	1273
88.43	1295	1273
88.44	1277	1273
88.45	1279	1273
88.46	1308	1273
88.47	1304	1273
88.48	1299	1273
88.49	1328	1273
88.5	1341	1273
88.51	1324	1273
88.52	1319	1273
88.53	1340	1273
88.54	1365	1272
88.55	1364	1272
88.56	1333	1272
88.57	1361	1272
88.58	1365	1272
88.59	1344	1272
88.6	1328	1272
88.61	1320	1272
88.62	1324	1272
88.63	1350	1272
88.64	1354	1272
88.65	1342	1272
88.66	1324	1272
88.67	1318	1272
88.68	1304	1272
88.69	1329	1272
88.7	1358	1272
88.71	1346	1272
88.72	1360	1272
88.73	1354	1272
88.74	1349	1272
88.75	1333	1271
88.76	1318	1271
88.77	1363	1271
88.78	1369	1271
88.79	1333	1271
88.8	1335	1271
88.81	1326	1271
88.82	1338	1271
88.83	1331	1271
88.84	1296	1271
88.85	1309	1271
88.86	1335	1271
88.87	1327	1271
88.88	1309	1271
88.89	1328	1271
88.9	1357	1271
88.91	1314	1271
88.92	1319	1271
88.93	1317	1271
88.94	1322	1271
88.95	1340	1271
88.96	1347	1271
88.97	1336	1271
88.98	1327	1271
88.99	1301	1271
89.0	1316	1270
89.01	1350	1270
89.02	1334	1270
89.03	1338	1270
89.04	1346	1270
89.05	1348	1270
89.06	1324	1270
89.07	1298	1270
89.08	1302	1270
89.09	1327	1270
89.1	1323	1270
89.11	1311	1270
89.12	1318	1270
89.13	1335	1270
89.14	1330	1270
89.15	1343	1270
89.16	1323	1270
89.17	1354	1270
89.18	1368	1270
89.19	1347	1270
89.2	1334	1270
89.21	1296	1270
89.22	1240	1270
89.23	1244	1270
89.24	1295	1270
89.25	1317	1270
89.26	1313	1270
89.27	1316	1270
89.28	1289	1270
89.29	1261	1270
89.3	1295	1269
89.31	1360	1269
89.32	1378	1269
89.33	1376	1269
89.34	1362	1269
89.35	1351	1269
89.36	1356	1269
89.37	1342	1269
89.38	1304	1269
89.39	1298	1269
89.4	1342	1269
89.41	1332	1269
89.42	1337	1269
89.43	1336	1269
89.44	1319	1269
89.45	1313	1269
89.46	1316	1269
89.47	1319	1269
89.48	1339	1269
89.49	1346	1269
89.5	1335	1269
89.51	1315	1269
89.52	1301	1269
89.53	1306	1269
89.54	1297	1269
89.55	1317	1269
89.56	1321	1269
89.57	1302	1269
89.58	1289	1269
89.59	1310	1269
89.6	1328	1269
89.61	1317	1269
89.62	1320	1269
89.63	1322	1269
89.64	1327	1269
89.65	1297	1269
89.66	1273	1269
89.67	1305	1269
89.68	1330	1269
89.69	1319	1269
89.7	1303	1269
89.71	1305	1269
89.72	1302	1269
89.73	1303	1268
89.74	1303	1268
89.75	1350	1268
89.76	1362	1268
89.77	1338	1268
89.78	1358	1268
89.79	1350	1268
89.8	1351	1268
89.81	1349	1268
89.82	1321	1268
89.83	1346	1268
89.84	1394	1268
89.85	1395	1268
89.86	1349	1268
89.87	1313	1268
89.88	1359	1268
89.89	1377	1268
89.9	1340	1268
89.91	1315	1268
89.92	1322	1268
89.93	1346	1268
89.94	1330	1268
89.95	1334	1268
89.96	1359	1268
89.97	1339	1268
89.98	1323	1268
89.99	1317	1268
90.0	1330	1268
90.01	1330	1268
90.02	1336	1268
90.03	1342	1268
90.04	1347	1268
90.05	1319	1268
90.06	1285	1268
90.07	1302	1268
90.08	1329	1268
90.09	1311	1268
90.1	1313	1268
90.11	1338	1268
90.12	1337	1268
90.13	1332	1268
90.14	1323	1268
90.15	1321	1268
90.16	1324	1268
90.17	1291	1268
90.18	1286	1268
90.19	1314	1268
90.2	1330	1268
90.21	1329	1268
90.22	1313	1268
90.23	1298	1268
90.24	1311	1268
90.25	1304	1268
90.26	1292	1268
90.27	1296	1268
90.28	1295	1268
90.29	1299	1268
90.3	1328	1268
90.31	1348	1268
90.32	1360	1268
90.33	1337	1268
90.34	1309	1268
90.35	1311	1268
90.36	1306	1268
90.37	1334	1268
90.38	1352	1268
90.39	1318	1268
90.4	1315	1268
90.41	1340	1268
90.42	1353	1268
90.43	1338	1268
90.44	1343	1268
90.45	1382	1268
90.46	1391	1268
90.47	1351	1268
90.48	1316	1268
90.49	1286	1268
90.5	1287	1268
90.51	1317	1268
90.52	1323	1268
90.53	1316	1268
90.54	1338	1268
90.55	1365	1268
90.56	1361	1268
90.57	1329	1268
90.58	1323	1268
90.59	1329	1268
90.6	1314	1268
90.61	1298	1268
90.62	1284	1268
90.63	1281	1268
90.64	1303	1268
90.65	1279	1268
90.66	1261	1268
90.67	1313	1268
90.68	1348	1268
90.69	1340	1268
90.7	1317	1268
90.71	1306	1268
90.72	1304	1268
90.73	1325	1268
90.74	1342	1268
90.75	1345	1268
90.76	1356	1268
90.77	1343	1268
90.78	1339	1268
90.79	1355	1268
90.8	1342	1268
90.81	1314	1268
90.82	1313	1268
90.83	1328	1268
90.84	1322	1268
90.85	1314	1268
90.86	1295	1268
90.87	1304	1268
90.88	1320	1268
90.89	1322	1268
90.9	1315	1268
90.91	1308	1268
90.92	1318	1268
90.93	1322	1268
90.94	1321	1268
90.95	1300	1268
90.96	1302	1268
90.97	1326	1268
90.98	1316	1268
90.99	1292	1268
91.0	1303	1268
91.01	1346	1268
91.02	1344	1268
91.03	1302	1268
91.04	1305	1268
91.05	1297	1268
91.06	1319	1268
91.07	1346	1268
91.08	1324	1268
91.09	1330	1268
91.1	1328	1268
91.11	1314	1268
91.12	1310	1268
91.13	1309	1268
91.14	1325	1268
91.15	1319	1268
91.16	1287	1268
91.17	1292	1268
91.18	1292	1268
91.19	1276	1268
91.2	1291	1268
91.21	1336	1268
91.22	1351	1268
91.23	1338	1268
91.24	1324	1268
91.25	1326	1269
91.26	1348	1269
91.27	1336	1269
91.28	1346	1269
91.29	1387	1269
91.3	1359	1269
91.31	1337	1269
91.32	1367	1269
91.33	1361	1269
91.34	1330	1269
91.35	1322	1269
91.36	1317	1269
91.37	1308	1269
91.38	1304	1269
91.39	1297	1269
91.4	1316	1269
91.41	1353	1269
91.42	1357	1269
91.43	1320	1269
91.44	1299	1269
91.45	1304	1269
91.46	1300	1269
91.47	1336	1269
91.48	1330	1269
91.49	1284	1269
91.5	1311	1269
91.51	1347	1269
91.52	1343	1269
91.53	1333	1269
91.54	1339	1269
91.55	1330	1269
91.56	1323	1269
91.57	1343	1269
91.58	1351	1269
91.59	1337	1269
91.6	1341	1269
91.61	1346	1269
91.62	1328	1269
91.63	1323	1269
91.64	1342	1269
91.65	1336	1269
91.66	1301	1269
91.67	1292	1269
91.68	1324	1269
91.69	1317	1269
91.7	1293	1269
91.71	1320	1269
91.72	1363	1269
91.73	1388	1269
91.74	1339	1269
91.75	1299	1269
91.76	1291	1269
91.77	1283	1269
91.78	1297	1270
91.79	1327	1270
91.8	1332	1270
91.81	1345	1270
91.82	1347	1270
91.83	1316	1270
91.84	1316	1270
91.85	1324	1270
91.86	1313	1270
91.87	1317	1270
91.88	1316	1270
91.89	1292	1270
91.9	1302	1270
91.91	1319	1270
91.92	1317	1270
91.93	1337	1270
91.94	1346	1270
91.95	1330	1270
91.96	1309	1270
91.97	1301	1270
91.98	1325	1270
91.99	1342	1270
92.0	1320	1270
92.01	1298	1270
92.02	1288	1270
92.03	1294	1270
92.04	1301	1270
92.05	1297	1270
92.06	1313	1270
92.07	1323	1270
92.08	1304	1270
92.09	1313	1270
92.1	1312	1270
92.11	1300	1270
92.12	1315	1270
92.13	1351	1270
92.14	1357	1270
92.15	1335	1270
92.16	1338	1270
92.17	1330	1270
92.18	1330	1271
92.19	1313	1271
92.2	1296	1271
92.21	1317	1271
92.22	1318	1271
92.23	1306	1271
92.24	1313	1271
92.25	1340	1271
92.26	1346	1271
92.27	1321	1271
92.28	1307	1271
92.29	1314	1271
92.3	1314	1271
92.31	1327	1271
92.32	1358	1271
92.33	1354	1271
92.34	1328	1271
92.35	1320	1271
92.36	1313	1271
92.37	1317	1271
92.38	1338	1271
92.39	1344	1271
92.4	1335	1271
92.41	1357	1271
92.42	1378	1271
92.43	1355	1271
92.44	1345	1271
92.45	1333	1271
92.46	1304	1271
92.47	1319	1271
92.48	1341	1271
92.49	1349	1271
92.5	1367	1271
92.51	1358	1271
92.52	1346	1271
92.53	1353	1272
92.54	1369	1272
92.55	1383	1272
92.56	1394	1272
92.57	1386	1272
92.58	1353	1272
92.59	1329	1272
92.6	1347	1272
92.61	1347	1272
92.62	1322	1272
92.63	1326	1272
92.64	1326	1272
92.65	1323	1272
92.66	1342	1272
92.67	1380	1272
92.68	1387	1272
92.69	1357	1272
92.7	1372	1272
92.71	1390	1272
92.72	1366	1272
92.73	1360	1272
92.74	1407	1272
92.75	1392	1272
92.76	1365	1272
92.77	1374	1272
92.78	1347	1272
92.79	1319	1272
92.8	1326	1272
92.81	1349	1272
92.82	1379	1272
92.83	1366	1272
92.84	1345	1273
92.85	1350	1273
92.86	1381	1273
92.87	1401	1273
92.88	1401	1273
92.89	1363	1273
92.9	1327	1273
92.91	1325	1273
92.92	1352	1273
92.93	1374	1273
92.94	1367	1273
92.95	1359	1273
92.96	1339	1273
92.97	1325	1273
92.98	1334	1273
92.99	1365	1273
93.0	1397	1273
93.01	1380	1273
93.02	1387	1273
93.03	1382	1273
93.04	1358	1273
93.05	1363	1273
93.06	1402	1273
93.07	1402	1273
93.08	1372	1273
93.09	1361	1273
93.1	1362	1273
93.11	1366	1273
93.12	1371	1273
93.13	1364	1273
93.14	1353	1274
93.15	1377	1274
93.16	1398	1274
93.17	1402	1274
93.18	1389	1274
93.19	1400	1274
93.2	1423	1274
93.21	1423	1274
93.22	1388	1274
93.23	1373	1274
93.24	1405	1274
93.25	1412	1274
93.26	1393	1274
93.27	1408	1274
93.28	1400	1274
93.29	1380	1274
93.3	1374	1274
93.31	1353	1274
93.32	1343	1274
93.33	1368	1274
93.34	1376	1274
93.35	1377	1274
93.36	1400	1274
93.37	1398	1274
93.38	1391	1274
93.39	1416	1274
93.4	1430	1274
93.41	1422	1274
93.42	1398	1274
93.43	1445	1275
93.44	1478	1275
93.45	1475	1275
93.46	1447	1275
93.47	1405	1275
93.48	1416	1275
93.49	1450	1275
93.5	1469	1275
93.51	1475	1275
93.52	1475	1275
93.53	1473	1275
93.54	1464	1275
93.55	1472	1275
93.56	1466	1275
93.57	1442	1275
93.58	1440	1275
93.59	1418	1275
93.6	1435	1275
93.61	1470	1275
93.62	1471	1275
93.63	1482	1275
93.64	1486	1275
93.65	1470	1275
93.66	1443	1275
93.67	1435	1275
93.68	1478	1275
93.69	1514	1275
93.7	1494	1275
93.71	1487	1275
93.72	1506	1276
93.73	1508	1276
93.74	1495	1276
93.75	1490	1276
93.76	1500	1276
93.77	1521	1276
93.78	1505	1276
93.79	1492	1276
93.8	1519	1276
93.81	1524	1276
93.82	1538	1276
93.83	1499	1276
93.84	1483	1276
93.85	1506	1276
93.86	1518	1276
93.87	1554	1276
93.88	1557	1276
93.89	1529	1276
93.9	1545	1276
93.91	1558	1276
93.92	1545	1276
93.93	1514	1276
93.94	1529	1276
93.95	1551	1276
93.96	1522	1276
93.97	1489	1276
93.98	1503	1276
93.99	1510	1276
94.0	1525	1277
94.01	1523	1277
94.02	1539	1277
94.03	1545	1277
94.04	1552	1277
94.05	1536	1277
94.06	1556	1277
94.07	1525	1277
94.08	1501	1277
94.09	1533	1277
94.1	1554	1277
94.11	1506	1277
94.12	1478	1277
94.13	1498	1277
94.14	1498	1277
94.15	1504	1277
94.16	1516	1277
94.17	1498	1277
94.18	1484	1277
94.19	1487	1277
94.2	1459	1277
94.21	1448	1277
94.22	1461	1277
94.23	1449	1277
94.24	1480	1277
94.25	1504	1277
94.26	1477	1277
94.27	1451	1277
94.28	1468	1278
94.29	1479	1278
94.3	1500	1278
94.31	1490	1278
94.32	1466	1278
94.33	1446	1278
94.34	1460	1278
94.35	1447	1278
94.36	1445	1278
94.37	1419	1278
94.38	1422	1278
94.39	1445	1278
94.4	1426	1278
94.41	1423	1278
94.42	1450	1278
94.43	1430	1278
94.44	1418	1278
94.45	1383	1278
94.46	1405	1278
94.47	1437	1278
94.48	1457	1278
94.49	1408	1278
94.5	1397	1278
94.51	1395	1278
94.52	1407	1278
94.53	1406	1278
94.54	1385	1278
94.55	1364	1278
94.56	1401	1278
94.57	1401	1279
94.58	1356	1279
94.59	1336	1279
94.6	1374	1279
94.61	1382	1279
94.62	1357	1279
94.63	1365	1279
94.64	1369	1279
94.65	1363	1279
94.66	1313	1279
94.67	1314	1279
94.68	1379	1279
94.69	1381	1279
94.7	1341	1279
94.71	1358	1279
94.72	1350	1279
94.73	1353	1279
94.74	1379	1279
94.75	1362	1279
94.76	1355	1279
94.77	1343	1279
94.78	1351	1279
94.79	1352	1279
94.8	1336	1279
94.81	1319	1279
94.82	1325	1279
94.83	1346	1279
94.84	1340	1279
94.85	1324	1279
94.86	1340	1279
94.87	1348	1279
94.88	1321	1280
94.89	1328	1280
94.9	1330	1280
94.91	1316	1280
94.92	1316	1280
94.93	1351	1280
94.94	1324	1280
94.95	1308	1280
94.96	1274	1280
94.97	1311	1280
94.98	1344	1280
94.99	1370	1280
95.0	1354	1280
95.01	1349	1280
95.02	1357	1280
95.03	1358	1280
95.04	1321	1280
95.05	1296	1280
95.06	1301	1280
95.07	1311	1280
95.08	1306	1280
95.09	1308	1280
95.1	1315	1280
95.11	1370	1280
95.12	1364	1280
95.13	1348	1280
95.14	1346	1280
95.15	1351	1280
95.16	1357	1280
95.17	1330	1280
95.18	1326	1280
95.19	1305	1280
95.2	1318	1281
95.21	1320	1281
95.22	1290	1281
95.23	1299	1281
95.24	1344	1281
95.25	1329	1281
95.26	1311	1281
95.27	1339	1281
95.28	1322	1281
95.29	1349	1281
95.3	1359	1281
95.31	1309	1281
95.32	1296	1281
95.33	1331	1281
95.34	1341	1281
95.35	1334	1281
95.36	1327	1281
95.37	1311	1281
95.38	1299	1281
95.39	1312	1281
95.4	1316	1281
95.41	1352	1281
95.42	1354	1281
95.43	1328	1281
95.44	1343	1281
95.45	1322	1281
95.46	1310	1281
95.47	1321	1281
95.48	1336	1281
95.49	1322	1281
95.5	1334	1281
95.51	1312	1281
95.52	1316	1281
95.53	1329	1281
95.54	1304	1281
95.55	1263	1281
95.56	1258	1282
95.57	1306	1282
95.58	1337	1282
95.59	1305	1282
95.6	1358	1282
95.61	1364	1282
95.62	1341	1282
95.63	1306	1282
95.64	1277	1282
95.65	1282	1282
95.66	1317	1282
95.67	1321	1282
95.68	1318	1282
95.69	1329	1282
95.7	1336	1282
95.71	1294	1282
95.72	1313	1282
95.73	1339	1282
95.74	1310	1282
95.75	1313	1282
95.76	1312	1282
95.77	1306	1282
95.78	1315	1282
95.79	1312	1282
95.8	1324	1282
95.81	1341	1282
95.82	1323	1282
95.83	1340	1282
95.84	1366	1282
95.85	1337	1282
95.86	1299	1282
95.87	1340	1282
95.88	1374	1282
95.89	1346	1282
95.9	1322	1282
95.91	1329	1282
95.92	1352	1282
95.93	1361	1282
95.94	1344	1282
95.95	1319	1282
95.96	1320	1282
95.97	1347	1282
95.98	1344	1283
95.99	1289	1283
96.0	1267	1283
96.01	1289	1283
96.02	1342	1283
96.03	1329	1283
96.04	1309	1283
96.05	1287	1283
96.06	1293	1283
96.07	1294	1283
96.08	1283	1283
96.09	1298	1283
96.1	1304	1283
96.11	1327	1283
96.12	1324	1283
96.13	1341	1283
96.14	1353	1283
96.15	1305	1283
96.16	1297	1283
96.17	1308	1283
96.18	1324	1283
96.19	1299	1283
96.2	1279	1283
96.21	1295	1283
96.22	1290	1283
96.23	1305	1283
96.24	1319	1283
96.25	1328	1283
96.26	1323	1283
96.27	1332	1283
96.28	1331	1283
96.29	1338	1283
96.3	1306	1283
96.31	1276	1283
96.32	1297	1283
96.33	1327	1283
96.34	1312	1283
96.35	1335	1283
96.36	1367	1283
96.37	1384	1283
96.38	1320	1283
96.39	1297	1283
96.4	1326	1283
96.41	1350	1283
96.42	1344	1283
96.43	1374	1283
96.44	1341	1283
96.45	1336	1283
96.46	1342	1283
96.47	1334	1283
96.48	1349	1283
96.49	1333	1283
96.5	1343	1283
96.51	1331	1284
96.52	1311	1284
96.53	1317	1284
96.54	1330	1284
96.55	1334	1284
96.56	1338	1284
96.57	1322	1284
96.58	1363	1284
96.59	1420	1284
96.6	1395	1284
96.61	1353	1284
96.62	1326	1284
96.63	1331	1284
96.64	1304	1284
96.65	1275	1284
96.66	1274	1284
96.67	1320	1284
96.68	1331	1284
96.69	1334	1284
96.7	1326	1284
96.71	1287	1284
96.72	1286	1284
96.73	1308	1284
96.74	1341	1284
96.75	1323	1284
96.76	1291	1284
96.77	1277	1284
96.78	1306	1284
96.79	1309	1284
96.8	1329	1284
96.81	1324	1284
96.82	1330	1284
96.83	1332	1284
96.84	1325	1284
96.85	1307	1284
96.86	1308	1284
96.87	1297	1284
96.88	1320	1284
96.89	1297	1284
96.9	1287	1284
96.91	1347	1284
96.92	1358	1284
96.93	1328	1284
96.94	1340	1284
96.95	1319	1284
96.96	1309	1284
96.97	1301	1284
96.98	1328	1284
96.99	1354	1284
97.0	1358	1284
97.01	1296	1284
97.02	1326	1284
97.03	1309	1284
97.04	1317	1284
97.05	1315	1284
97.06	1291	1284
97.07	1292	1284
97.08	1288	1284
97.09	1292	1284
97.1	1303	1284
97.11	1338	1284
97.12	1382	1284
97.13	1373	1284
97.14	1343	1284
97.15	1323	1284
97.16	1328	1284
97.17	1325	1284
97.18	1293	1284
97.19	1315	1284
97.2	1363	1284
97.21	1355	1284
97.22	1320	1284
97.23	1333	1284
97.24	1287	1284
97.25	1275	1285
97.26	1296	1285
97.27	1293	1285
97.28	1295	1285
97.29	1311	1285
97.3	1351	1285
97.31	1334	1285
97.32	1301	1285
97.33	1306	1285
97.34	1311	1285
97.35	1290	1285
97.36	1300	1285
97.37	1315	1285
97.38	1336	1285
97.39	1336	1285
97.4	1349	1285
97.41	1333	1285
97.42	1282	1285
97.43	1301	1285
97.44	1333	1285
97.45	1353	1285
97.46	1334	1285
97.47	1332	1285
97.48	1310	1285
97.49	1360	1285
97.5	1306	1285
97.51	1292	1285
97.52	1298	1285
97.53	1323	1285
97.54	1336	1285
97.55	1317	1285
97.56	1304	1285
97.57	1276	1285
97.58	1262	1285
97.59	1309	1285
97.6	1338	1285
97.61	1304	1285
97.62	1277	1285
97.63	1333	1285
97.64	1334	1285
97.65	1312	1285
97.66	1305	1285
97.67	1337	1285
97.68	1327	1285
97.69	1282	1285
97.7	1285	1285
97.71	1292	1285
97.72	1338	1285
97.73	1286	1285
97.74	1287	1285
97.75	1317	1285
97.76	1313	1285
97.77	1331	1285
97.78	1324	1285
97.79	1328	1285
97.8	1348	1285
97.81	1365	1285
97.82	1352	1285
97.83	1316	1285
97.84	1342	1285
97.85	1361	1285
97.86	1338	1285
97.87	1314	1285
97.88	1332	1285
97.89	1370	1285
97.9	1338	1285
97.91	1312	1285
97.92	1292	1285
97.93	1314	1285
97.94	1340	1285
97.95	1305	1285
97.96	1270	1285
97.97	1309	1285
97.98	1287	1285
97.99	1270	1285
98.0	1320	1285
98.01	1340	1285
98.02	1328	1285
98.03	1329	1285
98.04	1318	1285
98.05	1366	1285
98.06	1352	1285
98.07	1345	1285
98.08	1310	1285
98.09	1302	1285
98.1	1290	1285
98.11	1310	1285
98.12	1298	1285
98.13	1382	1285
98.14	1320	1285
98.15	1293	1285
98.16	1318	1285
98.17	1289	1285
98.18	1311	1285
98.19	1337	1285
98.2	1308	1285
98.21	1315	1285
98.22	1351	1285
98.23	1389	1285
98.24	1354	1285
98.25	1338	1285
98.26	1321	1285
98.27	1324	1285
98.28	1321	1285
98.29	1331	1285
98.3	1370	1285
98.31	1340	1285
98.32	1336	1285
98.33	1348	1285
98.34	1367	1285
98.35	1357	1285
98.36	1385	1285
98.37	1353	1285
98.38	1314	1285
98.39	1314	1285
98.4	1355	1285
98.41	1313	1285
98.42	1319	1285
98.43	1370	1285
98.44	1350	1285
98.45	1367	1285
98.46	1356	1285
98.47	1351	1285
98.48	1343	1285
98.49	1364	1285
98.5	1340	1285
98.51	1379	1285
98.52	1366	1285
98.53	1356	1285
98.54	1310	1285
98.55	1348	1285
98.56	1392	1285
98.57	1380	1285
98.58	1357	1285
98.59	1378	1285
98.6	1411	1285
98.61	1413	1285
98.62	1382	1285
98.63	1345	1285
98.64	1374	1285
98.65	1383	1285
98.66	1426	1285
98.67	1400	1285
98.68	1364	1285
98.69	1384	1285
98.7	1419	1285
98.71	1464	1285
98.72	1433	1285
98.73	1418	1285
98.74	1397	1285
98.75	1380	1285
98.76	1428	1285
98.77	1431	1285
98.78	1392	1285
98.79	1371	1285
98.8	1438	1285
98.81	1430	1285
98.82	1413	1285
98.83	1453	1285
98.84	1505	1286
98.85	1477	1286
98.86	1432	1286
98.87	1399	1286
98.88	1426	1286
98.89	1470	1286
98.9	1505	1286
98.91	1477	1286
98.92	1507	1286
98.93	1546	1286
98.94	1507	1286
98.95	1508	1286
98.96	1543	1286
98.97	1573	1286
98.98	1562	1286
98.99	1577	1286
99.0	1593	1286
99.01	1555	1286
99.02	1569	1286
99.03	1603	1286
99.04	1611	1286
99.05	1625	1286
99.06	1573	1286
99.07	1562	1286
99.08	1585	1286
99.09	1608	1286
99.1	1564	1286
99.11	1546	1286
99.12	1595	1286
99.13	1611	1286
99.14	1601	1286
99.15	1541	1286
99.16	1610	1286
99.17	1566	1286
99.18	1600	1286
99.19	1577	1286
99.2	1564	1286
99.21	1596	1286
99.22	1572	1286
99.23	1567	1286
99.24	1579	1286
99.25	1605	1286
99.26	1599	1286
99.27	1568	1286
99.28	1554	1286
99.29	1547	1286
99.3	1563	1286
99.31	1527	1286
99.32	1582	1286
99.33	1583	1286
99.34	1570	1286
99.35	1534	1286
99.36	1584	1286
99.37	1568	1286
99.38	1539	1286
99.39	1581	1286
99.4	1549	1286
99.41	1546	1286
99.42	1545	1286
99.43	1537	1286
99.44	1503	1286
99.45	1482	1286
99.46	1518	1286
99.47	1510	1286
99.48	1531	1286
99.49	1572	1286
99.5	1536	1286
99.51	1494	1286
99.52	1521	1286
99.53	1522	1286
99.54	1474	1286
99.55	1494	1286
99.56	1485	1286
99.57	1410	1286
99.58	1395	1286
99.59	1365	1286
99.6	1442	1286
99.61	1472	1286
99.62	1448	1286
99.63	1430	1286
99.64	1452	1286
99.65	1436	1286
99.66	1437	1286
99.67	1469	1286
99.68	1432	1286
99.69	1409	1286
99.7	1412	1286
99.71	1438	1286
99.72	1413	1286
99.73	1406	1286
99.74	1460	1286
99.75	1393	1286
99.76	1371	1286
99.77	1367	1286
99.78	1358	1286
99.79	1390	1286
99.8	1370	1286
99.81	1368	1286
99.82	1326	1286
99.83	1362	1286
99.84	1355	1286
99.85	1375	1286
99.86	1393	1286
99.87	1330	1286
99.88	1348	1286
99.89	1361	1286
99.9	1328	1286
99.91	1386	1286
99.92	1385	1286
99.93	1387	1286
99.94	1359	1286
99.95	1364	1286
99.96	1364	1286
99.97	1366	1286
99.98	1346	1286
99.99	1383	1286
100.0	1364	1286
