Single_MnO2_long_sca
Wavelength = 1.54059 Ã… (Cu)
Angle	I(o)	I(b)
10.0	5207	6006
10.01	5177	6006
10.02	5278	6005
10.03	5252	6005
10.04	5220	6005
10.05	5305	6005
10.06	5318	6004
10.07	5184	6004
10.08	5212	6004
10.09	5281	6004
10.1	5373	6003
10.11	5350	6003
10.12	5286	6003
10.13	5348	6003
10.14	5401	6002
10.15	5345	6002
10.16	5410	6002
10.17	5341	6002
10.18	5315	6001
10.19	5307	6001
10.2	5297	6001
10.21	5340	6001
10.22	5352	6001
10.23	5374	6000
10.24	5381	6000
10.25	5289	6000
10.26	5379	6000
10.27	5355	6000
10.28	5364	5999
10.29	5342	5999
10.3	5218	5999
10.31	5264	5999
10.32	5320	5999
10.33	5379	5998
10.34	5341	5998
10.35	5348	5998
10.36	5431	5998
10.37	5420	5998
10.38	5510	5998
10.39	5530	5997
10.4	5543	5997
10.41	5558	5997
10.42	5453	5997
10.43	5468	5997
10.44	5487	5997
10.45	5502	5997
10.46	5496	5997
10.47	5568	5997
10.48	5550	5996
10.49	5477	5996
10.5	5517	5996
10.51	5580	5996
10.52	5509	5996
10.53	5549	5996
10.54	5632	5996
10.55	5581	5996
10.56	5530	5996
10.57	5644	5996
10.58	5572	5996
10.59	5645	5996
10.6	5755	5996
10.61	5659	5996
10.62	5571	5996
10.63	5590	5996
10.64	5668	5996
10.65	5725	5996
10.66	5690	5996
10.67	5698	5996
10.68	5624	5996
10.69	5668	5996
10.7	5767	5996
10.71	5709	5997
10.72	5665	5997
10.73	5670	5997
10.74	5716	5997
10.75	5730	5997
10.76	5746	5997
10.77	5807	5997
10.78	5781	5998
10.79	5764	5998
10.8	5846	5998
10.81	5855	5998
10.82	5832	5999
10.83	5748	5999
10.84	5779	5999
10.85	5873	5999
10.86	5829	6000
10.87	5755	6000
10.88	5877	6000
10.89	5947	6000
10.9	5816	6001
10.91	5792	6001
10.92	5934	6002
10.93	5948	6002
10.94	5903	6002
10.95	5849	6003
10.96	5906	6003
10.97	5917	6004
10.98	5899	6004
10.99	5989	6004
11.0	6015	6005
11.01	6017	6005
11.02	5948	6006
11.03	6043	6006
11.04	6069	6007
11.05	5977	6007
11.06	5963	6008
11.07	6051	6009
11.08	6048	6009
11.09	5950	6010
11.1	5994	6010
11.11	6013	6011
11.12	5956	6012
11.13	6125	6012
11.14	6126	6013
11.15	6145	6014
11.16	6033	6014
11.17	6140	6015
11.18	6144	6016
11.19	6113	6017
11.2	6088	6017
11.21	6134	6018
11.22	6173	6019
11.23	6133	6020
11.24	6054	6021
11.25	6084	6021
11.26	6149	6022
11.27	6165	6023
11.28	6155	6024
11.29	6181	6025
11.3	6274	6026
11.31	6345	6027
11.32	6214	6028
11.33	6227	6029
11.34	6276	6030
11.35	6189	6031
11.36	6215	6032
11.37	6244	6033
11.38	6259	6034
11.39	6195	6035
11.4	6243	6036
11.41	6222	6037
11.42	6250	6038
11.43	6280	6039
11.44	6299	6040
11.45	6343	6041
11.46	6331	6042
11.47	6289	6043
11.48	6317	6045
11.49	6267	6046
11.5	6372	6047
11.51	6411	6048
11.52	6284	6049
11.53	6276	6051
11.54	6342	6052
11.55	6323	6053
11.56	6399	6054
11.57	6392	6056
11.58	6345	6057
11.59	6522	6058
11.6	6538	6059
11.61	6467	6061
11.62	6433	6062
11.63	6523	6063
11.64	6525	6065
11.65	6499	6066
11.66	6409	6068
11.67	6350	6069
11.68	6465	6070
11.69	6465	6072
11.7	6502	6073
11.71	6601	6075
11.72	6562	6076
11.73	6487	6078
11.74	6476	6079
11.75	6549	6081
11.76	6510	6082
11.77	6639	6084
11.78	6585	6085
11.79	6538	6087
11.8	6588	6089
11.81	6561	6090
11.82	6548	6092
11.83	6515	6093
11.84	6651	6095
11.85	6579	6097
11.86	6588	6098
11.87	6585	6100
11.88	6594	6102
11.89	6663	6103
11.9	6690	6105
11.91	6663	6107
11.92	6641	6109
11.93	6563	6110
11.94	6568	6112
11.95	6744	6114
11.96	6781	6116
11.97	6723	6117
11.98	6798	6119
11.99	6734	6121
12.0	6723	6123
12.01	6694	6125
12.02	6748	6127
12.03	6720	6129
12.04	6736	6130
12.05	6711	6132
12.06	6683	6134
12.07	6660	6136
12.08	6835	6138
12.09	6848	6140
12.1	6789	6142
12.11	6837	6144
12.12	6759	6146
12.13	6793	6148
12.14	6790	6150
12.15	6801	6152
12.16	6841	6154
12.17	6844	6156
12.18	6843	6158
12.19	6871	6160
12.2	6856	6162
12.21	6900	6164
12.22	6938	6166
12.23	6937	6168
12.24	7030	6171
12.25	7054	6173
12.26	7044	6175
12.27	7091	6177
12.28	6961	6179
12.29	6948	6181
12.3	6949	6184
12.31	7019	6186
12.32	7170	6188
12.33	7197	6190
12.34	7090	6192
12.35	7011	6195
12.36	6945	6197
12.37	7090	6199
12.38	7106	6202
12.39	7100	6204
12.4	7125	6206
12.41	7166	6208
12.42	7098	6211
12.43	7125	6213
12.44	7263	6215
12.45	7225	6218
12.46	7296	6220
12.47	7375	6223
12.48	7237	6225
12.49	7263	6227
12.5	7299	6230
12.51	7299	6232
12.52	7296	6235
12.53	7367	6237
12.54	7482	6240
12.55	7420	6242
12.56	7444	6245
12.57	7522	6247
12.58	7398	6250
12.59	7386	6252
12.6	7497	6255
12.61	7442	6257
12.62	7356	6260
12.63	7380	6262
12.64	7432	6265
12.65	7624	6267
12.66	7564	6270
12.67	7598	6273
12.68	7556	6275
12.69	7701	6278
12.7	7647	6280
12.71	7679	6283
12.72	7638	6286
12.73	7681	6288
12.74	7624	6291
12.75	7679	6294
12.76	7767	6296
12.77	7745	6299
12.78	7758	6302
12.79	7824	6305
12.8	7871	6307
12.81	7929	6310
12.82	7898	6313
12.83	7922	6316
12.84	8049	6318
12.85	8033	6321
12.86	8014	6324
12.87	8103	6327
12.88	8116	6330
12.89	7965	6332
12.9	8092	6335
12.91	8166	6338
12.92	8120	6341
12.93	8206	6344
12.94	8292	6347
12.95	8246	6350
12.96	8180	6353
12.97	8305	6355
12.98	8342	6358
12.99	8328	6361
13.0	8309	6364
13.01	8419	6367
13.02	8427	6370
13.03	8379	6373
13.04	8332	6376
13.05	8460	6379
13.06	8570	6382
13.07	8682	6385
13.08	8661	6388
13.09	8694	6391
13.1	8651	6394
13.11	8724	6397
13.12	8823	6400
13.13	8898	6403
13.14	9005	6406
13.15	8866	6409
13.16	8839	6412
13.17	8855	6416
13.18	8875	6419
13.19	8932	6422
13.2	9096	6425
13.21	9085	6428
13.22	9031	6431
13.23	9002	6434
13.24	9146	6438
13.25	9315	6441
13.26	9354	6444
13.27	9360	6447
13.28	9277	6450
13.29	9342	6453
13.3	9362	6457
13.31	9309	6460
13.32	9455	6463
13.33	9541	6466
13.34	9656	6470
13.35	9668	6473
13.36	9647	6476
13.37	9629	6479
13.38	9650	6483
13.39	9765	6486
13.4	9930	6489
13.41	9928	6493
13.42	9876	6496
13.43	9968	6499
13.44	10012	6503
13.45	10026	6506
13.46	10077	6509
13.47	10135	6513
13.48	10198	6516
13.49	10270	6519
13.5	10241	6523
13.51	10247	6526
13.52	10270	6530
13.53	10419	6533
13.54	10586	6536
13.55	10578	6540
13.56	10513	6543
13.57	10679	6547
13.58	10699	6550
13.59	10756	6554
13.6	10725	6557
13.61	10779	6561
13.62	10794	6564
13.63	10873	6568
13.64	10784	6571
13.65	10757	6575
13.66	10853	6578
13.67	11024	6582
13.68	11172	6585
13.69	11252	6589
13.7	11245	6592
13.71	11347	6596
13.72	11450	6599
13.73	11344	6603
13.74	11375	6607
13.75	11404	6610
13.76	11534	6614
13.77	11584	6617
13.78	11570	6621
13.79	11634	6625
13.8	11666	6628
13.81	11686	6632
13.82	11727	6636
13.83	11777	6639
13.84	11870	6643
13.85	11969	6647
13.86	11945	6650
13.87	12079	6654
13.88	12100	6658
13.89	12103	6661
13.9	11994	6665
13.91	12027	6669
13.92	12072	6672
13.93	12138	6676
13.94	12179	6680
13.95	12199	6684
13.96	12328	6687
13.97	12446	6691
13.98	12521	6695
13.99	12534	6699
14.0	12516	6702
14.01	12472	6706
14.02	12473	6710
14.03	12527	6714
14.04	12542	6718
14.05	12649	6721
14.06	12764	6725
14.07	12728	6729
14.08	12670	6733
14.09	12678	6737
14.1	12798	6741
14.11	12850	6744
14.12	12996	6748
14.13	13056	6752
14.14	12929	6756
14.15	12831	6760
14.16	12970	6764
14.17	13077	6768
14.18	13091	6772
14.19	13106	6776
14.2	13136	6779
14.21	13188	6783
14.22	13094	6787
14.23	13178	6791
14.24	13310	6795
14.25	13324	6799
14.26	13291	6803
14.27	13401	6807
14.28	13416	6811
14.29	13350	6815
14.3	13285	6819
14.31	13394	6823
14.32	13458	6827
14.33	13584	6831
14.34	13492	6835
14.35	13498	6839
14.36	13398	6843
14.37	13358	6847
14.38	13499	6851
14.39	13538	6855
14.4	13475	6859
14.41	13455	6863
14.42	13560	6867
14.43	13551	6871
14.44	13537	6875
14.45	13530	6879
14.46	13597	6883
14.47	13752	6887
14.48	13633	6892
14.49	13638	6896
14.5	13672	6900
14.51	13707	6904
14.52	13649	6908
14.53	13726	6912
14.54	13766	6916
14.55	13685	6920
14.56	13734	6924
14.57	13819	6929
14.58	13804	6933
14.59	13651	6937
14.6	13657	6941
14.61	13676	6945
14.62	13799	6949
14.63	13864	6954
14.64	13883	6958
14.65	13944	6962
14.66	13901	6966
14.67	13868	6970
14.68	13850	6974
14.69	13841	6979
14.7	13823	6983
14.71	13844	6987
14.72	13852	6991
14.73	13770	6996
14.74	13829	7000
14.75	13645	7004
14.76	13689	7008
14.77	13913	7012
14.78	13849	7017
14.79	13781	7021
14.8	13763	7025
14.81	13714	7030
14.82	13784	7034
14.83	13859	7038
14.84	13943	7042
14.85	13823	7047
14.86	13810	7051
14.87	13904	7055
14.88	13800	7060
14.89	13731	7064
14.9	13750	7068
14.91	13766	7072
14.92	13739	7077
14.93	13650	7081
14.94	13669	7085
14.95	13751	7090
14.96	13744	7094
14.97	13735	7098
14.98	13755	7103
14.99	13793	7107
15.0	13775	7111
15.01	13734	7116
15.02	13746	7120
15.03	13774	7125
15.04	13762	7129
15.05	13762	7133
15.06	13800	7138
15.07	13670	7142
15.08	13575	7146
15.09	13604	7151
15.1	13570	7155
15.11	13558	7160
15.12	13618	7164
15.13	13585	7168
15.14	13586	7173
15.15	13508	7177
15.16	13470	7182
15.17	13489	7186
15.18	13551	7191
15.19	13615	7195
15.2	13667	7199
15.21	13534	7204
15.22	13609	7208
15.23	13605	7213
15.24	13526	7217
15.25	13447	7222
15.26	13438	7226
15.27	13444	7231
15.28	13491	7235
15.29	13443	7240
15.3	13320	7244
15.31	13255	7248
15.32	13326	7253
15.33	13415	7257
15.34	13471	7262
15.35	13403	7266
15.36	13367	7271
15.37	13326	7275
15.38	13298	7280
15.39	13349	7284
15.4	13394	7289
15.41	13288	7293
15.42	13246	7298
15.43	13287	7303
15.44	13192	7307
15.45	13200	7312
15.46	13250	7316
15.47	13310	7321
15.48	13378	7325
15.49	13416	7330
15.5	13323	7334
15.51	13204	7339
15.52	13118	7343
15.53	13186	7348
15.54	13229	7352
15.55	13153	7357
15.56	13109	7362
15.57	13067	7366
15.58	13131	7371
15.59	13103	7375
15.6	13109	7380
15.61	13080	7384
15.62	13091	7389
15.63	13155	7394
15.64	13126	7398
15.65	13013	7403
15.66	12919	7407
15.67	12934	7412
15.68	13007	7417
15.69	13014	7421
15.7	12953	7426
15.71	12957	7430
15.72	13014	7435
15.73	13047	7440
15.74	12948	7444
15.75	12919	7449
15.76	12795	7453
15.77	12806	7458
15.78	12940	7463
15.79	12880	7467
15.8	12842	7472
15.81	12846	7477
15.82	12823	7481
15.83	12690	7486
15.84	12786	7490
15.85	12905	7495
15.86	12822	7500
15.87	12818	7504
15.88	12876	7509
15.89	12790	7514
15.9	12701	7518
15.91	12676	7523
15.92	12734	7528
15.93	12831	7532
15.94	12845	7537
15.95	12780	7542
15.96	12673	7546
15.97	12622	7551
15.98	12692	7556
15.99	12801	7560
16.0	12709	7565
16.01	12675	7570
16.02	12758	7574
16.03	12666	7579
16.04	12577	7584
16.05	12704	7588
16.06	12742	7593
16.07	12640	7598
16.08	12719	7602
16.09	12736	7607
16.1	12698	7612
16.11	12681	7616
16.12	12585	7621
16.13	12625	7626
16.14	12698	7630
16.15	12711	7635
16.16	12663	7640
16.17	12596	7645
16.18	12547	7649
16.19	12557	7654
16.2	12585	7659
16.21	12573	7663
16.22	12608	7668
16.23	12658	7673
16.24	12552	7677
16.25	12426	7682
16.26	12504	7687
16.27	12612	7692
16.28	12594	7696
16.29	12532	7701
16.3	12478	7706
16.31	12575	7710
16.32	12672	7715
16.33	12656	7720
16.34	12577	7725
16.35	12590	7729
16.36	12619	7734
16.37	12540	7739
16.38	12478	7743
16.39	12512	7748
16.4	12570	7753
16.41	12558	7758
16.42	12570	7762
16.43	12633	7767
16.44	12618	7772
16.45	12605	7776
16.46	12631	7781
16.47	12600	7786
16.48	12570	7791
16.49	12650	7795
16.5	12586	7800
16.51	12453	7805
16.52	12507	7810
16.53	12541	7814
16.54	12557	7819
16.55	12653	7824
16.56	12581	7828
16.57	12440	7833
16.58	12512	7838
16.59	12632	7843
16.6	12573	7847
16.61	12574	7852
16.62	12650	7857
16.63	12656	7862
16.64	12664	7866
16.65	12737	7871
16.66	12637	7876
16.67	12535	7881
16.68	12567	7885
16.69	12557	7890
16.7	12609	7895
16.71	12702	7899
16.72	12657	7904
16.73	12630	7909
16.74	12655	7914
16.75	12686	7918
16.76	12646	7923
16.77	12616	7928
16.78	12661	7933
16.79	12625	7937
16.8	12476	7942
16.81	12405	7947
16.82	12462	7951
16.83	12570	7956
16.84	12553	7961
16.85	12477	7966
16.86	12582	7970
16.87	12625	7975
16.88	12572	7980
16.89	12588	7985
16.9	12528	7989
16.91	12585	7994
16.92	12657	7999
16.93	12704	8003
16.94	12727	8008
16.95	12715	8013
16.96	12690	8018
16.97	12669	8022
16.98	12643	8027
16.99	12593	8032
17.0	12545	8037
17.01	12656	8041
17.02	12781	8046
17.03	12697	8051
17.04	12592	8055
17.05	12590	8060
17.06	12576	8065
17.07	12610	8070
17.08	12703	8074
17.09	12685	8079
17.1	12657	8084
17.11	12670	8088
17.12	12606	8093
17.13	12654	8098
17.14	12730	8103
17.15	12723	8107
17.16	12750	8112
17.17	12722	8117
17.18	12693	8121
17.19	12694	8126
17.2	12681	8131
17.21	12663	8135
17.22	12690	8140
17.23	12764	8145
17.24	12782	8150
17.25	12686	8154
17.26	12584	8159
17.27	12647	8164
17.28	12670	8168
17.29	12689	8173
17.3	12747	8178
17.31	12733	8182
17.32	12741	8187
17.33	12827	8192
17.34	12815	8196
17.35	12731	8201
17.36	12739	8206
17.37	12771	8210
17.38	12799	8215
17.39	12754	8220
17.4	12728	8224
17.41	12769	8229
17.42	12740	8234
17.43	12750	8238
17.44	12768	8243
17.45	12744	8248
17.46	12773	8252
17.47	12782	8257
17.48	12741	8262
17.49	12746	8266
17.5	12730	8271
17.51	12683	8276
17.52	12760	8280
17.53	12778	8285
17.54	12688	8290
17.55	12658	8294
17.56	12706	8299
17.57	12815	8303
17.58	12877	8308
17.59	12846	8313
17.6	12781	8317
17.61	12807	8322
17.62	12886	8327
17.63	12890	8331
17.64	12898	8336
17.65	12944	8340
17.66	12965	8345
17.67	12890	8350
17.68	12809	8354
17.69	12835	8359
17.7	12949	8363
17.71	12977	8368
17.72	12913	8373
17.73	12886	8377
17.74	12885	8382
17.75	12803	8386
17.76	12716	8391
17.77	12756	8396
17.78	12822	8400
17.79	12866	8405
17.8	12833	8409
17.81	12829	8414
17.82	12823	8418
17.83	12830	8423
17.84	12892	8428
17.85	12888	8432
17.86	12840	8437
17.87	12786	8441
17.88	12806	8446
17.89	12893	8450
17.9	12882	8455
17.91	12847	8459
17.92	12877	8464
17.93	12916	8469
17.94	12906	8473
17.95	12878	8478
17.96	12905	8482
17.97	12912	8487
17.98	12903	8491
17.99	12887	8496
18.0	12845	8500
18.01	12873	8505
18.02	12984	8509
18.03	13022	8514
18.04	12881	8518
18.05	12872	8523
18.06	12983	8527
18.07	13033	8532
18.08	13033	8536
18.09	12997	8541
18.1	12982	8545
18.11	13054	8550
18.12	13071	8554
18.13	13088	8558
18.14	13082	8563
18.15	12999	8567
18.16	13043	8572
18.17	13021	8576
18.18	12994	8581
18.19	13046	8585
18.2	13032	8590
18.21	13001	8594
18.22	12980	8598
18.23	12944	8603
18.24	12926	8607
18.25	12891	8612
18.26	12896	8616
18.27	12983	8621
18.28	13070	8625
18.29	13090	8629
18.3	13107	8634
18.31	13050	8638
18.32	12987	8643
18.33	13023	8647
18.34	13079	8651
18.35	13118	8656
18.36	13070	8660
18.37	12992	8664
18.38	13008	8669
18.39	13031	8673
18.4	12945	8677
18.41	12913	8682
18.42	12955	8686
18.43	13011	8690
18.44	13043	8695
18.45	13016	8699
18.46	12939	8703
18.47	12829	8708
18.48	12815	8712
18.49	12846	8716
18.5	12877	8721
18.51	12929	8725
18.52	12960	8729
18.53	12988	8734
18.54	12953	8738
18.55	12989	8742
18.56	13107	8746
18.57	13082	8751
18.58	13030	8755
18.59	13025	8759
18.6	13018	8764
18.61	12900	8768
18.62	12865	8772
18.63	12878	8776
18.64	13047	8781
18.65	13083	8785
18.66	13052	8789
18.67	13032	8793
18.68	13053	8797
18.69	13040	8802
18.7	13084	8806
18.71	13160	8810
18.72	13025	8814
18.73	12950	8818
18.74	13047	8823
18.75	13124	8827
18.76	13081	8831
18.77	12940	8835
18.78	12934	8839
18.79	13033	8843
18.8	13144	8848
18.81	13132	8852
18.82	12993	8856
18.83	13004	8860
18.84	13083	8864
18.85	13030	8868
18.86	13016	8872
18.87	13087	8877
18.88	13057	8881
18.89	13083	8885
18.9	13084	8889
18.91	13021	8893
18.92	13085	8897
18.93	13143	8901
18.94	12989	8905
18.95	12886	8909
18.96	13023	8913
18.97	13121	8917
18.98	13004	8921
18.99	12963	8925
19.0	13021	8929
19.01	13057	8933
19.02	12969	8938
19.03	12930	8942
19.04	13003	8946
19.05	13038	8950
19.06	13001	8954
19.07	13016	8958
19.08	12961	8962
19.09	12834	8966
19.1	12882	8969
19.11	12983	8973
19.12	12987	8977
19.13	13014	8981
19.14	13030	8985
19.15	13079	8989
19.16	13179	8993
19.17	13251	8997
19.18	13098	9001
19.19	12977	9005
19.2	13001	9009
19.21	13075	9013
19.22	13081	9017
19.23	13109	9021
19.24	13155	9024
19.25	13116	9028
19.26	12990	9032
19.27	12832	9036
19.28	12924	9040
19.29	12946	9044
19.3	12940	9048
19.31	12933	9051
19.32	12894	9055
19.33	12886	9059
19.34	12841	9063
19.35	12874	9067
19.36	12939	9071
19.37	12967	9074
19.38	13017	9078
19.39	12952	9082
19.4	12917	9086
19.41	12954	9089
19.42	12919	9093
19.43	12959	9097
19.44	12974	9101
19.45	12920	9104
19.46	12902	9108
19.47	12963	9112
19.48	12930	9116
19.49	12944	9119
19.5	12938	9123
19.51	12873	9127
19.52	12902	9130
19.53	12916	9134
19.54	12857	9138
19.55	12936	9141
19.56	12979	9145
19.57	12969	9149
19.58	12955	9152
19.59	12926	9156
19.6	12949	9160
19.61	12918	9163
19.62	12759	9167
19.63	12897	9170
19.64	12981	9174
19.65	12948	9178
19.66	12965	9181
19.67	12873	9185
19.68	12937	9188
19.69	12955	9192
19.7	12911	9195
19.71	12808	9199
19.72	12818	9203
19.73	12970	9206
19.74	13020	9210
19.75	12927	9213
19.76	12855	9217
19.77	12882	9220
19.78	12969	9224
19.79	13022	9227
19.8	12997	9231
19.81	13052	9234
19.82	12999	9237
19.83	12969	9241
19.84	12779	9244
19.85	12797	9248
19.86	12895	9251
19.87	12836	9255
19.88	12806	9258
19.89	12904	9261
19.9	12921	9265
19.91	12843	9268
19.92	12872	9272
19.93	12958	9275
19.94	12982	9278
19.95	13039	9282
19.96	13017	9285
19.97	13022	9288
19.98	12972	9292
19.99	12858	9295
20.0	12829	9298
20.01	12921	9301
20.02	13055	9305
20.03	12999	9308
20.04	12837	9311
20.05	12838	9315
20.06	12891	9318
20.07	12860	9321
20.08	12925	9324
20.09	13004	9327
20.1	12858	9331
20.11	12826	9334
20.12	12912	9337
20.13	12945	9340
20.14	12997	9343
20.15	13042	9347
20.16	12966	9350
20.17	12859	9353
20.18	12811	9356
20.19	12855	9359
20.2	12906	9362
20.21	12911	9365
20.22	12894	9369
20.23	12867	9372
20.24	12796	9375
20.25	12883	9378
20.26	12940	9381
20.27	12840	9384
20.28	12950	9387
20.29	12912	9390
20.3	12821	9393
20.31	12830	9396
20.32	12936	9399
20.33	13003	9402
20.34	13007	9405
20.35	12955	9408
20.36	12885	9411
20.37	12927	9414
20.38	12994	9417
20.39	12984	9420
20.4	12834	9423
20.41	12875	9426
20.42	12916	9429
20.43	12896	9432
20.44	12899	9434
20.45	12942	9437
20.46	13031	9440
20.47	13076	9443
20.48	12998	9446
20.49	13007	9449
20.5	12998	9452
20.51	13108	9454
20.52	13065	9457
20.53	13034	9460
20.54	13065	9463
20.55	13023	9466
20.56	13089	9468
20.57	13098	9471
20.58	13037	9474
20.59	12988	9477
20.6	13038	9479
20.61	13038	9482
20.62	13135	9485
20.63	13226	9488
20.64	13032	9490
20.65	12897	9493
20.66	13072	9496
20.67	13224	9498
20.68	13280	9501
20.69	13282	9504
20.7	13135	9506
20.71	13055	9509
20.72	13227	9511
20.73	13230	9514
20.74	13273	9517
20.75	13219	9519
20.76	13266	9522
20.77	13254	9524
20.78	13306	9527
20.79	13432	9529
20.8	13393	9532
20.81	13336	9534
20.82	13227	9537
20.83	13255	9539
20.84	13262	9542
20.85	13279	9544
20.86	13346	9547
20.87	13526	9549
20.88	13553	9552
20.89	13375	9554
20.9	13190	9557
20.91	13412	9559
20.92	13482	9561
20.93	13506	9564
20.94	13475	9566
20.95	13419	9568
20.96	13480	9571
20.97	13594	9573
20.98	13631	9575
20.99	13571	9578
21.0	13510	9580
21.01	13423	9582
21.02	13468	9585
21.03	13529	9587
21.04	13503	9589
21.05	13684	9591
21.06	13732	9594
21.07	13791	9596
21.08	13787	9598
21.09	13538	9600
21.1	13652	9602
21.11	13675	9605
21.12	13720	9607
21.13	13675	9609
21.14	13680	9611
21.15	13670	9613
21.16	13793	9615
21.17	13821	9617
21.18	13847	9620
21.19	13940	9622
21.2	13776	9624
21.21	13875	9626
21.22	13878	9628
21.23	14015	9630
21.24	14055	9632
21.25	13865	9634
21.26	13833	9636
21.27	13979	9638
21.28	13887	9640
21.29	13808	9642
21.3	13853	9644
21.31	13946	9646
21.32	13984	9648
21.33	14004	9650
21.34	14060	9651
21.35	13911	9653
21.36	14046	9655
21.37	14048	9657
21.38	14000	9659
21.39	14199	9661
21.4	14058	9663
21.41	13897	9664
21.42	14096	9666
21.43	14091	9668
21.44	14014	9670
21.45	14085	9672
21.46	14307	9673
21.47	14335	9675
21.48	14243	9677
21.49	14072	9679
21.5	14092	9680
21.51	14035	9682
21.52	14112	9684
21.53	14321	9685
21.54	14305	9687
21.55	14142	9689
21.56	14208	9690
21.57	14250	9692
21.58	14293	9693
21.59	14308	9695
21.6	14240	9697
21.61	14126	9698
21.62	14060	9700
21.63	14110	9701
21.64	14105	9703
21.65	14027	9704
21.66	14160	9706
21.67	14255	9707
21.68	14320	9709
21.69	14271	9710
21.7	14356	9712
21.71	14490	9713
21.72	14247	9715
21.73	14033	9716
21.74	13987	9717
21.75	14062	9719
21.76	14153	9720
21.77	14170	9721
21.78	14050	9723
21.79	14247	9724
21.8	14324	9725
21.81	14268	9727
21.82	14223	9728
21.83	14156	9729
21.84	14136	9731
21.85	14084	9732
21.86	14171	9733
21.87	14117	9734
21.88	14203	9735
21.89	14225	9737
21.9	14088	9738
21.91	14193	9739
21.92	14145	9740
21.93	14037	9741
21.94	14095	9742
21.95	14019	9744
21.96	14029	9745
21.97	14221	9746
21.98	14159	9747
21.99	14001	9748
22.0	14152	9749
22.01	14086	9750
22.02	14207	9751
22.03	14114	9752
22.04	14137	9753
22.05	14143	9754
22.06	13976	9755
22.07	13907	9756
22.08	14136	9757
22.09	14092	9758
22.1	13942	9759
22.11	13856	9759
22.12	13851	9760
22.13	14006	9761
22.14	14016	9762
22.15	14034	9763
22.16	13985	9764
22.17	14045	9764
22.18	13930	9765
22.19	13855	9766
22.2	13871	9767
22.21	13757	9768
22.22	13893	9768
22.23	13664	9769
22.24	13674	9770
22.25	13663	9770
22.26	13559	9771
22.27	13602	9772
22.28	13574	9772
22.29	13536	9773
22.3	13645	9774
22.31	13641	9774
22.32	13448	9775
22.33	13424	9775
22.34	13515	9776
22.35	13543	9776
22.36	13509	9777
22.37	13465	9777
22.38	13418	9778
22.39	13542	9778
22.4	13376	9779
22.41	13477	9779
22.42	13379	9780
22.43	13342	9780
22.44	13174	9781
22.45	13138	9781
22.46	13300	9781
22.47	13298	9782
22.48	13180	9782
22.49	13057	9782
22.5	13077	9783
22.51	13069	9783
22.52	12946	9783
22.53	12937	9784
22.54	13009	9784
22.55	12988	9784
22.56	13022	9784
22.57	12859	9784
22.58	12810	9785
22.59	12915	9785
22.6	12888	9785
22.61	12688	9785
22.62	12790	9785
22.63	12742	9785
22.64	12697	9785
22.65	12566	9786
22.66	12478	9786
22.67	12639	9786
22.68	12562	9786
22.69	12428	9786
22.7	12393	9786
22.71	12508	9786
22.72	12610	9786
22.73	12442	9786
22.74	12317	9786
22.75	12336	9786
22.76	12296	9785
22.77	12267	9785
22.78	12319	9785
22.79	12198	9785
22.8	12166	9785
22.81	12155	9785
22.82	12207	9785
22.83	12134	9784
22.84	12202	9784
22.85	12197	9784
22.86	12098	9784
22.87	11936	9783
22.88	11974	9783
22.89	11851	9783
22.9	11904	9782
22.91	11882	9782
22.92	11895	9782
22.93	11827	9781
22.94	11674	9781
22.95	11678	9781
22.96	11722	9780
22.97	11610	9780
22.98	11702	9779
22.99	11798	9779
23.0	11679	9778
23.01	11552	9778
23.02	11602	9777
23.03	11714	9777
23.04	11580	9776
23.05	11393	9776
23.06	11436	9775
23.07	11420	9775
23.08	11413	9774
23.09	11366	9773
23.1	11426	9773
23.11	11268	9772
23.12	11280	9771
23.13	11317	9771
23.14	11328	9770
23.15	11143	9769
23.16	11166	9768
23.17	11317	9768
23.18	11243	9767
23.19	11071	9766
23.2	10968	9765
23.21	11031	9764
23.22	11113	9764
23.23	10955	9763
23.24	10749	9762
23.25	10925	9761
23.26	10873	9760
23.27	10926	9759
23.28	10886	9758
23.29	10688	9757
23.3	10837	9756
23.31	10810	9755
23.32	10891	9754
23.33	10733	9753
23.34	10615	9752
23.35	10693	9751
23.36	10861	9750
23.37	10776	9749
23.38	10664	9748
23.39	10595	9746
23.4	10569	9745
23.41	10573	9744
23.42	10547	9743
23.43	10491	9742
23.44	10594	9740
23.45	10546	9739
23.46	10389	9738
23.47	10423	9737
23.48	10414	9735
23.49	10248	9734
23.5	10344	9733
23.51	10336	9731
23.52	10262	9730
23.53	10212	9729
23.54	10315	9727
23.55	10285	9726
23.56	10276	9724
23.57	10185	9723
23.58	10108	9721
23.59	10068	9720
23.6	10109	9718
23.61	10169	9717
23.62	10021	9715
23.63	9978	9714
23.64	9937	9712
23.65	9887	9710
23.66	9902	9709
23.67	9979	9707
23.68	10109	9705
23.69	10145	9704
23.7	10079	9702
23.71	9932	9700
23.72	9864	9699
23.73	9875	9697
23.74	9838	9695
23.75	9867	9693
23.76	9939	9691
23.77	9871	9690
23.78	9793	9688
23.79	9747	9686
23.8	9791	9684
23.81	9790	9682
23.82	9792	9680
23.83	9758	9678
23.84	9810	9676
23.85	9801	9674
23.86	9707	9672
23.87	9675	9670
23.88	9713	9668
23.89	9612	9666
23.9	9759	9664
23.91	9717	9662
23.92	9660	9660
23.93	9547	9658
23.94	9568	9656
23.95	9461	9653
23.96	9452	9651
23.97	9405	9649
23.98	9452	9647
23.99	9570	9645
24.0	9538	9642
24.01	9509	9640
24.02	9474	9638
24.03	9451	9635
24.04	9482	9633
24.05	9480	9631
24.06	9507	9628
24.07	9549	9626
24.08	9483	9623
24.09	9403	9621
24.1	9330	9619
24.11	9302	9616
24.12	9330	9614
24.13	9417	9611
24.14	9297	9609
24.15	9285	9606
24.16	9296	9603
24.17	9254	9601
24.18	9221	9598
24.19	9326	9596
24.2	9317	9593
24.21	9281	9590
24.22	9407	9588
24.23	9441	9585
24.24	9334	9582
24.25	9281	9579
24.26	9233	9577
24.27	9229	9574
24.28	9236	9571
24.29	9277	9568
24.3	9234	9565
24.31	9251	9562
24.32	9251	9559
24.33	9239	9557
24.34	9304	9554
24.35	9248	9551
24.36	9174	9548
24.37	9215	9545
24.38	9229	9542
24.39	9229	9539
24.4	9210	9536
24.41	9117	9533
24.42	9161	9529
24.43	9248	9526
24.44	9265	9523
24.45	9231	9520
24.46	9141	9517
24.47	9174	9514
24.48	9224	9510
24.49	9264	9507
24.5	9211	9504
24.51	9117	9501
24.52	9100	9497
24.53	9130	9494
24.54	9132	9491
24.55	8975	9487
24.56	8966	9484
24.57	9032	9481
24.58	9141	9477
24.59	9114	9474
24.6	9122	9470
24.61	9119	9467
24.62	9111	9463
24.63	9081	9460
24.64	9011	9456
24.65	9047	9453
24.66	9032	9449
24.67	9030	9445
24.68	9062	9442
24.69	9028	9438
24.7	8965	9434
24.71	8993	9431
24.72	9068	9427
24.73	9098	9423
24.74	9090	9420
24.75	9039	9416
24.76	9110	9412
24.77	9155	9408
24.78	9065	9404
24.79	9019	9400
24.8	9076	9397
24.81	9058	9393
24.82	9106	9389
24.83	9219	9385
24.84	9201	9381
24.85	9080	9377
24.86	9104	9373
24.87	9146	9369
24.88	9243	9365
24.89	9234	9361
24.9	9148	9357
24.91	9071	9352
24.92	9127	9348
24.93	9154	9344
24.94	9177	9340
24.95	9100	9336
24.96	9145	9331
24.97	9142	9327
24.98	9186	9323
24.99	9130	9319
25.0	9052	9314
25.01	9078	9310
25.02	9068	9306
25.03	9114	9301
25.04	9250	9297
25.05	9187	9292
25.06	9117	9288
25.07	9086	9284
25.08	9066	9279
25.09	9064	9275
25.1	9123	9270
25.11	9162	9265
25.12	9022	9261
25.13	9024	9256
25.14	9223	9252
25.15	9276	9247
25.16	9237	9242
25.17	9218	9238
25.18	9104	9233
25.19	9096	9228
25.2	9141	9223
25.21	9177	9219
25.22	9206	9214
25.23	9203	9209
25.24	9167	9204
25.25	9192	9199
25.26	9165	9194
25.27	9178	9189
25.28	9233	9185
25.29	9213	9180
25.3	9183	9175
25.31	9256	9170
25.32	9244	9165
25.33	9281	9160
25.34	9369	9154
25.35	9318	9149
25.36	9311	9144
25.37	9317	9139
25.38	9293	9134
25.39	9294	9129
25.4	9298	9124
25.41	9244	9118
25.42	9219	9113
25.43	9247	9108
25.44	9295	9103
25.45	9348	9097
25.46	9278	9092
25.47	9338	9086
25.48	9473	9081
25.49	9401	9076
25.5	9328	9070
25.51	9324	9065
25.52	9261	9059
25.53	9247	9054
25.54	9353	9048
25.55	9351	9043
25.56	9331	9037
25.57	9368	9032
25.58	9397	9026
25.59	9417	9020
25.6	9372	9015
25.61	9339	9009
25.62	9423	9003
25.63	9441	8997
25.64	9389	8992
25.65	9444	8986
25.66	9474	8980
25.67	9434	8974
25.68	9412	8968
25.69	9457	8962
25.7	9451	8957
25.71	9432	8951
25.72	9452	8945
25.73	9471	8939
25.74	9390	8933
25.75	9423	8927
25.76	9452	8921
25.77	9483	8915
25.78	9377	8908
25.79	9289	8902
25.8	9313	8896
25.81	9391	8890
25.82	9400	8884
25.83	9401	8878
25.84	9419	8871
25.85	9461	8865
25.86	9459	8859
25.87	9394	8853
25.88	9323	8846
25.89	9351	8840
25.9	9387	8833
25.91	9418	8827
25.92	9424	8821
25.93	9389	8814
25.94	9449	8808
25.95	9445	8801
25.96	9409	8795
25.97	9374	8788
25.98	9416	8782
25.99	9414	8775
26.0	9390	8768
26.01	9405	8762
26.02	9358	8755
26.03	9239	8748
26.04	9185	8742
26.05	9326	8735
26.06	9365	8728
26.07	9291	8721
26.08	9232	8714
26.09	9297	8708
26.1	9341	8701
26.11	9339	8694
26.12	9288	8687
26.13	9249	8680
26.14	9278	8673
26.15	9238	8666
26.16	9290	8659
26.17	9390	8652
26.18	9353	8645
26.19	9361	8638
26.2	9287	8631
26.21	9213	8623
26.22	9197	8616
26.23	9182	8609
26.24	9180	8602
26.25	9250	8595
26.26	9241	8587
26.27	9161	8580
26.28	9192	8573
26.29	9221	8565
26.3	9203	8558
26.31	9195	8551
26.32	9191	8543
26.33	9149	8536
26.34	9063	8528
26.35	9063	8521
26.36	9048	8513
26.37	9021	8506
26.38	9019	8498
26.39	9029	8491
26.4	9053	8483
26.41	9052	8475
26.42	9002	8468
26.43	9006	8460
26.44	9050	8452
26.45	9041	8444
26.46	8975	8437
26.47	8908	8429
26.48	8978	8421
26.49	9032	8413
26.5	9007	8405
26.51	8993	8397
26.52	8953	8389
26.53	8908	8381
26.54	8910	8373
26.55	8874	8365
26.56	8784	8357
26.57	8769	8349
26.58	8773	8341
26.59	8723	8333
26.6	8768	8325
26.61	8810	8317
26.62	8758	8309
26.63	8671	8300
26.64	8617	8292
26.65	8650	8284
26.66	8690	8276
26.67	8669	8267
26.68	8667	8259
26.69	8561	8251
26.7	8520	8242
26.71	8580	8234
26.72	8649	8225
26.73	8617	8217
26.74	8509	8208
26.75	8484	8200
26.76	8490	8191
26.77	8439	8183
26.78	8387	8174
26.79	8342	8165
26.8	8360	8157
26.81	8402	8148
26.82	8426	8139
26.83	8363	8131
26.84	8320	8122
26.85	8355	8113
26.86	8371	8104
26.87	8298	8095
26.88	8207	8086
26.89	8189	8078
26.9	8188	8069
26.91	8144	8060
26.92	8105	8051
26.93	8130	8042
26.94	8160	8033
26.95	8151	8024
26.96	8108	8014
26.97	8038	8005
26.98	7991	7996
26.99	7985	7987
27.0	8019	7978
27.01	8014	7969
27.02	7946	7959
27.03	7930	7950
27.04	7926	7941
27.05	7920	7931
27.06	7916	7922
27.07	7881	7913
27.08	7881	7903
27.09	7852	7894
27.1	7779	7884
27.11	7692	7875
27.12	7693	7865
27.13	7734	7856
27.14	7685	7846
27.15	7685	7837
27.16	7752	7827
27.17	7743	7817
27.18	7660	7808
27.19	7645	7798
27.2	7618	7788
27.21	7517	7778
27.22	7507	7769
27.23	7582	7759
27.24	7647	7749
27.25	7624	7739
27.26	7546	7729
27.27	7491	7719
27.28	7444	7709
27.29	7462	7699
27.3	7466	7689
27.31	7429	7679
27.32	7421	7669
27.33	7401	7659
27.34	7405	7649
27.35	7383	7639
27.36	7321	7628
27.37	7306	7618
27.38	7275	7608
27.39	7240	7598
27.4	7274	7587
27.41	7279	7577
27.42	7214	7567
27.43	7210	7556
27.44	7247	7546
27.45	7214	7535
27.46	7123	7525
27.47	7064	7514
27.48	7085	7504
27.49	7122	7493
27.5	7155	7483
27.51	7119	7472
27.52	7051	7462
27.53	7086	7451
27.54	7155	7440
27.55	7191	7429
27.56	7193	7419
27.57	7090	7408
27.58	6948	7397
27.59	6934	7386
27.6	6996	7375
27.61	7014	7364
27.62	6993	7354
27.63	6908	7343
27.64	6852	7332
27.65	6876	7321
27.66	6916	7310
27.67	6915	7298
27.68	6874	7287
27.69	6874	7276
27.7	6849	7265
27.71	6873	7254
27.72	6894	7243
27.73	6829	7231
27.74	6820	7220
27.75	6809	7209
27.76	6811	7198
27.77	6853	7186
27.78	6824	7175
27.79	6709	7163
27.8	6633	7152
27.81	6722	7140
27.82	6823	7129
27.83	6821	7117
27.84	6787	7106
27.85	6728	7094
27.86	6675	7083
27.87	6661	7071
27.88	6624	7059
27.89	6569	7048
27.9	6574	7036
27.91	6554	7024
27.92	6540	7012
27.93	6448	7000
27.94	6407	6989
27.95	6505	6977
27.96	6538	6965
27.97	6591	6953
27.98	6584	6941
27.99	6519	6929
28.0	6489	6917
28.01	6460	6905
28.02	6501	6893
28.03	6531	6880
28.04	6496	6868
28.05	6424	6856
28.06	6383	6844
28.07	6432	6832
28.08	6474	6819
28.09	6477	6807
28.1	6444	6795
28.11	6378	6782
28.12	6284	6770
28.13	6275	6758
28.14	6326	6745
28.15	6366	6733
28.16	6380	6720
28.17	6381	6708
28.18	6444	6695
28.19	6411	6682
28.2	6314	6670
28.21	6323	6657
28.22	6339	6644
28.23	6320	6632
28.24	6383	6619
28.25	6411	6606
28.26	6361	6593
28.27	6328	6580
28.28	6383	6568
28.29	6417	6555
28.3	6366	6542
28.31	6365	6529
28.32	6469	6516
28.33	6375	6503
28.34	6312	6490
28.35	6383	6477
28.36	6373	6463
28.37	6361	6450
28.38	6432	6437
28.39	6466	6424
28.4	6518	6411
28.41	6535	6397
28.42	6567	6384
28.43	6576	6371
28.44	6609	6357
28.45	6764	6344
28.46	6892	6331
28.47	6941	6317
28.48	7088	6304
28.49	7201	6290
28.5	7286	6277
28.51	7487	6263
28.52	7764	6249
28.53	8064	6236
28.54	8404	6222
28.55	8855	6208
28.56	9296	6195
28.57	9818	6181
28.58	10530	6167
28.59	11486	6153
28.6	12375	6139
28.61	13430	6125
28.62	14918	6112
28.63	16591	6098
28.64	18406	6084
28.65	20442	6070
28.66	22359	6055
28.67	24020	6041
28.68	25267	6027
28.69	25608	6013
28.7	24970	5999
28.71	23705	5985
28.72	21994	5971
28.73	20353	5956
28.74	18856	5942
28.75	17774	5928
28.76	16619	5913
28.77	15333	5899
28.78	13841	5884
28.79	12356	5870
28.8	10942	5855
28.81	9622	5841
28.82	8588	5826
28.83	7885	5812
28.84	7433	5797
28.85	7122	5783
28.86	6804	5768
28.87	6555	5753
28.88	6451	5738
28.89	6291	5724
28.9	6168	5709
28.91	6158	5694
28.92	6152	5680
28.93	6151	5665
28.94	6089	5650
28.95	5952	5635
28.96	5944	5621
28.97	5916	5606
28.98	5889	5591
28.99	5879	5576
29.0	5829	5562
29.01	5769	5547
29.02	5723	5532
29.03	5670	5518
29.04	5597	5503
29.05	5609	5488
29.06	5592	5474
29.07	5602	5459
29.08	5644	5445
29.09	5601	5430
29.1	5510	5416
29.11	5475	5401
29.12	5511	5387
29.13	5482	5372
29.14	5361	5358
29.15	5378	5344
29.16	5384	5330
29.17	5329	5315
29.18	5233	5301
29.19	5261	5287
29.2	5289	5273
29.21	5324	5259
29.22	5381	5246
29.23	5374	5232
29.24	5370	5218
29.25	5338	5204
29.26	5222	5191
29.27	5196	5177
29.28	5187	5164
29.29	5197	5151
29.3	5233	5137
29.31	5249	5124
29.32	5204	5111
29.33	5175	5098
29.34	5140	5085
29.35	5134	5072
29.36	5192	5060
29.37	5079	5047
29.38	5072	5035
29.39	5128	5022
29.4	5146	5010
29.41	5089	4998
29.42	5067	4986
29.43	5096	4974
29.44	5071	4962
29.45	5012	4950
29.46	5010	4939
29.47	5042	4927
29.48	5055	4916
29.49	5035	4905
29.5	4962	4893
29.51	4965	4883
29.52	4889	4872
29.53	4797	4861
29.54	4823	4851
29.55	4894	4840
29.56	4954	4830
29.57	4927	4820
29.58	4904	4810
29.59	4870	4800
29.6	4881	4790
29.61	4836	4781
29.62	4801	4771
29.63	4815	4762
29.64	4822	4753
29.65	4817	4744
29.66	4809	4735
29.67	4789	4726
29.68	4785	4717
29.69	4777	4708
29.7	4739	4700
29.71	4751	4692
29.72	4792	4683
29.73	4805	4675
29.74	4760	4667
29.75	4741	4659
29.76	4692	4651
29.77	4713	4643
29.78	4730	4636
29.79	4764	4628
29.8	4745	4621
29.81	4637	4613
29.82	4634	4606
29.83	4631	4599
29.84	4717	4592
29.85	4672	4585
29.86	4622	4578
29.87	4598	4571
29.88	4542	4564
29.89	4533	4558
29.9	4557	4551
29.91	4551	4544
29.92	4571	4538
29.93	4607	4532
29.94	4625	4525
29.95	4578	4519
29.96	4588	4513
29.97	4547	4507
29.98	4455	4501
29.99	4480	4495
30.0	4518	4489
30.01	4504	4483
30.02	4518	4477
30.03	4516	4471
30.04	4492	4466
30.05	4536	4460
30.06	4549	4454
30.07	4620	4449
30.08	4616	4443
30.09	4554	4438
30.1	4524	4432
30.11	4486	4427
30.12	4463	4422
30.13	4443	4416
30.14	4488	4411
30.15	4485	4406
30.16	4418	4401
30.17	4447	4396
30.18	4417	4390
30.19	4412	4385
30.2	4450	4380
30.21	4448	4375
30.22	4528	4370
30.23	4488	4365
30.24	4430	4360
30.25	4427	4355
30.26	4390	4350
30.27	4314	4345
30.28	4244	4340
30.29	4380	4335
30.3	4436	4330
30.31	4400	4325
30.32	4339	4321
30.33	4303	4316
30.34	4314	4311
30.35	4297	4306
30.36	4293	4301
30.37	4328	4296
30.38	4281	4291
30.39	4307	4286
30.4	4251	4282
30.41	4248	4277
30.42	4276	4272
30.43	4286	4267
30.44	4286	4262
30.45	4326	4258
30.46	4307	4253
30.47	4278	4248
30.48	4297	4243
30.49	4223	4239
30.5	4274	4234
30.51	4260	4229
30.52	4219	4224
30.53	4191	4220
30.54	4214	4215
30.55	4243	4210
30.56	4232	4206
30.57	4237	4201
30.58	4214	4196
30.59	4274	4192
30.6	4258	4187
30.61	4173	4182
30.62	4197	4178
30.63	4211	4173
30.64	4094	4168
30.65	4137	4164
30.66	4172	4159
30.67	4125	4155
30.68	4141	4150
30.69	4180	4145
30.7	4247	4141
30.71	4246	4136
30.72	4150	4132
30.73	4239	4127
30.74	4203	4123
30.75	4129	4118
30.76	4087	4114
30.77	4138	4109
30.78	4146	4105
30.79	4075	4100
30.8	4131	4096
30.81	4194	4091
30.82	4095	4087
30.83	4062	4082
30.84	4081	4078
30.85	4049	4074
30.86	4084	4069
30.87	4106	4065
30.88	4046	4060
30.89	4059	4056
30.9	4005	4052
30.91	4069	4047
30.92	3980	4043
30.93	4052	4039
30.94	4014	4034
30.95	3977	4030
30.96	3885	4025
30.97	3958	4021
30.98	4039	4017
30.99	3992	4013
31.0	3928	4008
31.01	3916	4004
31.02	3969	4000
31.03	3908	3995
31.04	3898	3991
31.05	3974	3987
31.06	3940	3983
31.07	3951	3978
31.08	4049	3974
31.09	4044	3970
31.1	4015	3966
31.11	4001	3962
31.12	4004	3957
31.13	3938	3953
31.14	3892	3949
31.15	3929	3945
31.16	3923	3941
31.17	3901	3937
31.18	3895	3932
31.19	3858	3928
31.2	3915	3924
31.21	3936	3920
31.22	3872	3916
31.23	3841	3912
31.24	3786	3908
31.25	3835	3904
31.26	3823	3900
31.27	3827	3896
31.28	3868	3891
31.29	3877	3887
31.3	3820	3883
31.31	3849	3879
31.32	3828	3875
31.33	3821	3871
31.34	3859	3867
31.35	3888	3863
31.36	3859	3859
31.37	3814	3855
31.38	3810	3851
31.39	3820	3847
31.4	3849	3843
31.41	3760	3839
31.42	3721	3836
31.43	3708	3832
31.44	3744	3828
31.45	3810	3824
31.46	3797	3820
31.47	3710	3816
31.48	3697	3812
31.49	3763	3808
31.5	3742	3804
31.51	3766	3800
31.52	3720	3797
31.53	3732	3793
31.54	3713	3789
31.55	3778	3785
31.56	3635	3781
31.57	3645	3777
31.58	3663	3774
31.59	3684	3770
31.6	3733	3766
31.61	3714	3762
31.62	3659	3758
31.63	3658	3755
31.64	3624	3751
31.65	3552	3747
31.66	3661	3743
31.67	3735	3740
31.68	3720	3736
31.69	3615	3732
31.7	3603	3728
31.71	3654	3725
31.72	3651	3721
31.73	3590	3717
31.74	3641	3714
31.75	3674	3710
31.76	3621	3706
31.77	3590	3703
31.78	3631	3699
31.79	3604	3695
31.8	3637	3692
31.81	3657	3688
31.82	3633	3684
31.83	3609	3681
31.84	3582	3677
31.85	3591	3674
31.86	3651	3670
31.87	3660	3666
31.88	3698	3663
31.89	3623	3659
31.9	3554	3656
31.91	3584	3652
31.92	3646	3649
31.93	3541	3645
31.94	3653	3642
31.95	3687	3638
31.96	3667	3634
31.97	3536	3631
31.98	3588	3627
31.99	3587	3624
32.0	3567	3621
32.01	3517	3617
32.02	3527	3614
32.03	3578	3610
32.04	3605	3607
32.05	3524	3603
32.06	3497	3600
32.07	3501	3596
32.08	3467	3593
32.09	3532	3589
32.1	3608	3586
32.11	3582	3583
32.12	3570	3579
32.13	3542	3576
32.14	3496	3572
32.15	3472	3569
32.16	3499	3566
32.17	3533	3562
32.18	3583	3559
32.19	3569	3556
32.2	3535	3552
32.21	3485	3549
32.22	3420	3546
32.23	3433	3542
32.24	3485	3539
32.25	3541	3536
32.26	3525	3532
32.27	3483	3529
32.28	3432	3526
32.29	3428	3523
32.3	3436	3519
32.31	3468	3516
32.32	3412	3513
32.33	3410	3510
32.34	3414	3506
32.35	3404	3503
32.36	3441	3500
32.37	3391	3497
32.38	3480	3494
32.39	3463	3490
32.4	3445	3487
32.41	3475	3484
32.42	3478	3481
32.43	3391	3478
32.44	3400	3474
32.45	3458	3471
32.46	3468	3468
32.47	3431	3465
32.48	3438	3462
32.49	3420	3459
32.5	3394	3456
32.51	3383	3452
32.52	3381	3449
32.53	3311	3446
32.54	3363	3443
32.55	3436	3440
32.56	3397	3437
32.57	3351	3434
32.58	3426	3431
32.59	3386	3428
32.6	3365	3425
32.61	3417	3422
32.62	3470	3419
32.63	3372	3416
32.64	3347	3413
32.65	3392	3410
32.66	3329	3407
32.67	3309	3404
32.68	3348	3401
32.69	3314	3398
32.7	3280	3395
32.71	3304	3392
32.72	3353	3389
32.73	3373	3386
32.74	3338	3383
32.75	3308	3380
32.76	3381	3377
32.77	3359	3374
32.78	3316	3371
32.79	3385	3368
32.8	3435	3365
32.81	3385	3362
32.82	3325	3359
32.83	3323	3356
32.84	3340	3354
32.85	3337	3351
32.86	3285	3348
32.87	3337	3345
32.88	3378	3342
32.89	3315	3339
32.9	3294	3336
32.91	3285	3334
32.92	3322	3331
32.93	3327	3328
32.94	3254	3325
32.95	3256	3322
32.96	3252	3319
32.97	3301	3317
32.98	3306	3314
32.99	3276	3311
33.0	3319	3308
33.01	3300	3305
33.02	3289	3303
33.03	3232	3300
33.04	3157	3297
33.05	3256	3294
33.06	3297	3292
33.07	3316	3289
33.08	3280	3286
33.09	3323	3283
33.1	3276	3281
33.11	3231	3278
33.12	3229	3275
33.13	3191	3273
33.14	3213	3270
33.15	3218	3267
33.16	3255	3265
33.17	3263	3262
33.18	3201	3259
33.19	3193	3256
33.2	3255	3254
33.21	3301	3251
33.22	3227	3249
33.23	3219	3246
33.24	3195	3243
33.25	3211	3241
33.26	3152	3238
33.27	3215	3235
33.28	3230	3233
33.29	3199	3230
33.3	3180	3228
33.31	3160	3225
33.32	3190	3222
33.33	3207	3220
33.34	3176	3217
33.35	3206	3215
33.36	3259	3212
33.37	3203	3210
33.38	3173	3207
33.39	3180	3205
33.4	3122	3202
33.41	3116	3199
33.42	3114	3197
33.43	3151	3194
33.44	3175	3192
33.45	3152	3189
33.46	3179	3187
33.47	3126	3184
33.48	3106	3182
33.49	3151	3179
33.5	3151	3177
33.51	3119	3174
33.52	3103	3172
33.53	3189	3170
33.54	3260	3167
33.55	3195	3165
33.56	3092	3162
33.57	3106	3160
33.58	3115	3157
33.59	3107	3155
33.6	3131	3153
33.61	3157	3150
33.62	3168	3148
33.63	3131	3145
33.64	3095	3143
33.65	3118	3141
33.66	3107	3138
33.67	3115	3136
33.68	3144	3133
33.69	3100	3131
33.7	3055	3129
33.71	3063	3126
33.72	3123	3124
33.73	3106	3122
33.74	3075	3119
33.75	3093	3117
33.76	3135	3115
33.77	3170	3112
33.78	3144	3110
33.79	3073	3108
33.8	3026	3105
33.81	3124	3103
33.82	3138	3101
33.83	3117	3099
33.84	3141	3096
33.85	3076	3094
33.86	3125	3092
33.87	3121	3089
33.88	3089	3087
33.89	3013	3085
33.9	2994	3083
33.91	3012	3080
33.92	3049	3078
33.93	3083	3076
33.94	3128	3074
33.95	3117	3072
33.96	3051	3069
33.97	3046	3067
33.98	3044	3065
33.99	3055	3063
34.0	3072	3060
34.01	3124	3058
34.02	3119	3056
34.03	3054	3054
34.04	3030	3052
34.05	3038	3050
34.06	3030	3047
34.07	3024	3045
34.08	3087	3043
34.09	3065	3041
34.1	3066	3039
34.11	3048	3037
34.12	3032	3035
34.13	3109	3032
34.14	3131	3030
34.15	3077	3028
34.16	3059	3026
34.17	3032	3024
34.18	3024	3022
34.19	3027	3020
34.2	3015	3018
34.21	3010	3016
34.22	2992	3014
34.23	2982	3011
34.24	3018	3009
34.25	3061	3007
34.26	3010	3005
34.27	3002	3003
34.28	3066	3001
34.29	3076	2999
34.3	3066	2997
34.31	3023	2995
34.32	2976	2993
34.33	2950	2991
34.34	3024	2989
34.35	3084	2987
34.36	3086	2985
34.37	3032	2983
34.38	3010	2981
34.39	3008	2979
34.4	3036	2977
34.41	2963	2975
34.42	2908	2973
34.43	3012	2971
34.44	3009	2969
34.45	3012	2967
34.46	3025	2965
34.47	3052	2963
34.48	3028	2961
34.49	3003	2959
34.5	2998	2957
34.51	3053	2956
34.52	3035	2954
34.53	3027	2952
34.54	3053	2950
34.55	3007	2948
34.56	2995	2946
34.57	3015	2944
34.58	3072	2942
34.59	3075	2940
34.6	2977	2938
34.61	2957	2936
34.62	3028	2935
34.63	3050	2933
34.64	3051	2931
34.65	3013	2929
34.66	3002	2927
34.67	3082	2925
34.68	3093	2923
34.69	3023	2922
34.7	2993	2920
34.71	3020	2918
34.72	2970	2916
34.73	2975	2914
34.74	2985	2912
34.75	3006	2911
34.76	3006	2909
34.77	3023	2907
34.78	3037	2905
34.79	3007	2903
34.8	3004	2902
34.81	2993	2900
34.82	2982	2898
34.83	3016	2896
34.84	3038	2894
34.85	3013	2893
34.86	3017	2891
34.87	3025	2889
34.88	2998	2887
34.89	2938	2886
34.9	2952	2884
34.91	2943	2882
34.92	2936	2880
34.93	2951	2879
34.94	2955	2877
34.95	2972	2875
34.96	3027	2873
34.97	2998	2872
34.98	2978	2870
34.99	3051	2868
35.0	3043	2867
35.01	2973	2865
35.02	2968	2863
35.03	2983	2861
35.04	3030	2860
35.05	3044	2858
35.06	3011	2856
35.07	3011	2855
35.08	2999	2853
35.09	2982	2851
35.1	2978	2850
35.11	2999	2848
35.12	3017	2846
35.13	3006	2845
35.14	3031	2843
35.15	3015	2841
35.16	2965	2840
35.17	2956	2838
35.18	2989	2837
35.19	3004	2835
35.2	3017	2833
35.21	3031	2832
35.22	3013	2830
35.23	2997	2829
35.24	3052	2827
35.25	3042	2825
35.26	2991	2824
35.27	2957	2822
35.28	2952	2821
35.29	2977	2819
35.3	3034	2817
35.31	3054	2816
35.32	3042	2814
35.33	3001	2813
35.34	3000	2811
35.35	2995	2810
35.36	2982	2808
35.37	2988	2806
35.38	3029	2805
35.39	3063	2803
35.4	3049	2802
35.41	3016	2800
35.42	2999	2799
35.43	3000	2797
35.44	2984	2796
35.45	2954	2794
35.46	3000	2793
35.47	3030	2791
35.48	3015	2790
35.49	2983	2788
35.5	2967	2787
35.51	3003	2785
35.52	2991	2784
35.53	2972	2782
35.54	2935	2781
35.55	2947	2779
35.56	2975	2778
35.57	2963	2776
35.58	2987	2775
35.59	3008	2773
35.6	2970	2772
35.61	2943	2771
35.62	2982	2769
35.63	3030	2768
35.64	3028	2766
35.65	3014	2765
35.66	3011	2763
35.67	3016	2762
35.68	3008	2760
35.69	2983	2759
35.7	2979	2758
35.71	3010	2756
35.72	3015	2755
35.73	3034	2753
35.74	3016	2752
35.75	2967	2751
35.76	2976	2749
35.77	2992	2748
35.78	3044	2746
35.79	3074	2745
35.8	3049	2744
35.81	3010	2742
35.82	2985	2741
35.83	2987	2740
35.84	2991	2738
35.85	2977	2737
35.86	2964	2735
35.87	2954	2734
35.88	2973	2733
35.89	3000	2731
35.9	2960	2730
35.91	2906	2729
35.92	2958	2727
35.93	2987	2726
35.94	2967	2725
35.95	2955	2723
35.96	2953	2722
35.97	2977	2721
35.98	2965	2719
35.99	2930	2718
36.0	2969	2717
36.01	3003	2716
36.02	2977	2714
36.03	2993	2713
36.04	3029	2712
36.05	3028	2710
36.06	3012	2709
36.07	2995	2708
36.08	2985	2707
36.09	3027	2705
36.1	3060	2704
36.11	3069	2703
36.12	3085	2701
36.13	3060	2700
36.14	3043	2699
36.15	3046	2698
36.16	2990	2696
36.17	2958	2695
36.18	2982	2694
36.19	2991	2693
36.2	3020	2692
36.21	3045	2690
36.22	3040	2689
36.23	3050	2688
36.24	3027	2687
36.25	3007	2685
36.26	3018	2684
36.27	3019	2683
36.28	3014	2682
36.29	3011	2681
36.3	3023	2679
36.31	2997	2678
36.32	2954	2677
36.33	2960	2676
36.34	3022	2675
36.35	3041	2673
36.36	2995	2672
36.37	2970	2671
36.38	2980	2670
36.39	2964	2669
36.4	2936	2668
36.41	2914	2666
36.42	2875	2665
36.43	2881	2664
36.44	2948	2663
36.45	2948	2662
36.46	2922	2661
36.47	2964	2659
36.48	2939	2658
36.49	2881	2657
36.5	2923	2656
36.51	2989	2655
36.52	3001	2654
36.53	2991	2653
36.54	2947	2652
36.55	2922	2650
36.56	2938	2649
36.57	2922	2648
36.58	2909	2647
36.59	2952	2646
36.6	2999	2645
36.61	3030	2644
36.62	2985	2643
36.63	2897	2642
36.64	2911	2640
36.65	2925	2639
36.66	2875	2638
36.67	2869	2637
36.68	2888	2636
36.69	2909	2635
36.7	2939	2634
36.71	2942	2633
36.72	2951	2632
36.73	2938	2631
36.74	2930	2630
36.75	2913	2629
36.76	2875	2628
36.77	2877	2627
36.78	2924	2625
36.79	2932	2624
36.8	2893	2623
36.81	2898	2622
36.82	2890	2621
36.83	2926	2620
36.84	2928	2619
36.85	2856	2618
36.86	2853	2617
36.87	2867	2616
36.88	2872	2615
36.89	2928	2614
36.9	2949	2613
36.91	2931	2612
36.92	2966	2611
36.93	2965	2610
36.94	2928	2609
36.95	2974	2608
36.96	3041	2607
36.97	3055	2606
36.98	3038	2605
36.99	3011	2604
37.0	2993	2603
37.01	2970	2602
37.02	2970	2601
37.03	3015	2600
37.04	3022	2599
37.05	2993	2598
37.06	3017	2597
37.07	3040	2596
37.08	3076	2595
37.09	3115	2594
37.1	3152	2593
37.11	3190	2592
37.12	3188	2591
37.13	3183	2590
37.14	3239	2590
37.15	3329	2589
37.16	3406	2588
37.17	3432	2587
37.18	3461	2586
37.19	3544	2585
37.2	3671	2584
37.21	3800	2583
37.22	3997	2582
37.23	4205	2581
37.24	4380	2580
37.25	4612	2579
37.26	4932	2578
37.27	5305	2577
37.28	5754	2577
37.29	6302	2576
37.3	7037	2575
37.31	7948	2574
37.32	9156	2573
37.33	10672	2572
37.34	12350	2571
37.35	13994	2570
37.36	15286	2569
37.37	15914	2568
37.38	15734	2568
37.39	14784	2567
37.4	13277	2566
37.41	11614	2565
37.42	10279	2564
37.43	9518	2563
37.44	9405	2562
37.45	9608	2561
37.46	9689	2560
37.47	9538	2560
37.48	8996	2559
37.49	8086	2558
37.5	6998	2557
37.51	5979	2556
37.52	5097	2555
37.53	4399	2554
37.54	3966	2554
37.55	3718	2553
37.56	3571	2552
37.57	3412	2551
37.58	3317	2550
37.59	3269	2549
37.6	3230	2549
37.61	3201	2548
37.62	3160	2547
37.63	3116	2546
37.64	3072	2545
37.65	3026	2544
37.66	3003	2544
37.67	2992	2543
37.68	2960	2542
37.69	2983	2541
37.7	3010	2540
37.71	2930	2539
37.72	2890	2539
37.73	2891	2538
37.74	2911	2537
37.75	2921	2536
37.76	2848	2535
37.77	2821	2535
37.78	2814	2534
37.79	2794	2533
37.8	2791	2532
37.81	2786	2531
37.82	2756	2531
37.83	2714	2530
37.84	2734	2529
37.85	2756	2528
37.86	2758	2528
37.87	2737	2527
37.88	2706	2526
37.89	2684	2525
37.9	2635	2524
37.91	2675	2524
37.92	2694	2523
37.93	2715	2522
37.94	2746	2521
37.95	2729	2521
37.96	2716	2520
37.97	2748	2519
37.98	2726	2518
37.99	2670	2518
38.0	2650	2517
38.01	2622	2516
38.02	2613	2515
38.03	2620	2515
38.04	2603	2514
38.05	2582	2513
38.06	2612	2512
38.07	2669	2512
38.08	2637	2511
38.09	2632	2510
38.1	2639	2509
38.11	2650	2509
38.12	2614	2508
38.13	2648	2507
38.14	2671	2506
38.15	2614	2506
38.16	2606	2505
38.17	2572	2504
38.18	2574	2504
38.19	2582	2503
38.2	2589	2502
38.21	2615	2501
38.22	2599	2501
38.23	2556	2500
38.24	2538	2499
38.25	2551	2499
38.26	2571	2498
38.27	2590	2497
38.28	2630	2496
38.29	2644	2496
38.3	2569	2495
38.31	2495	2494
38.32	2551	2494
38.33	2585	2493
38.34	2540	2492
38.35	2565	2492
38.36	2599	2491
38.37	2561	2490
38.38	2534	2489
38.39	2553	2489
38.4	2578	2488
38.41	2638	2487
38.42	2625	2487
38.43	2550	2486
38.44	2533	2485
38.45	2534	2485
38.46	2512	2484
38.47	2506	2483
38.48	2520	2483
38.49	2523	2482
38.5	2555	2481
38.51	2566	2481
38.52	2518	2480
38.53	2479	2479
38.54	2514	2479
38.55	2547	2478
38.56	2514	2477
38.57	2557	2477
38.58	2587	2476
38.59	2537	2475
38.6	2509	2475
38.61	2532	2474
38.62	2528	2473
38.63	2459	2473
38.64	2453	2472
38.65	2469	2471
38.66	2514	2471
38.67	2536	2470
38.68	2531	2469
38.69	2520	2469
38.7	2506	2468
38.71	2519	2468
38.72	2565	2467
38.73	2503	2466
38.74	2469	2466
38.75	2452	2465
38.76	2468	2464
38.77	2494	2464
38.78	2493	2463
38.79	2496	2462
38.8	2483	2462
38.81	2461	2461
38.82	2466	2461
38.83	2526	2460
38.84	2554	2459
38.85	2510	2459
38.86	2515	2458
38.87	2516	2458
38.88	2497	2457
38.89	2519	2456
38.9	2469	2456
38.91	2439	2455
38.92	2470	2454
38.93	2451	2454
38.94	2482	2453
38.95	2500	2453
38.96	2487	2452
38.97	2519	2451
38.98	2525	2451
38.99	2523	2450
39.0	2513	2450
39.01	2496	2449
39.02	2484	2448
39.03	2473	2448
39.04	2460	2447
39.05	2485	2447
39.06	2487	2446
39.07	2495	2445
39.08	2542	2445
39.09	2527	2444
39.1	2483	2444
39.11	2495	2443
39.12	2508	2442
39.13	2496	2442
39.14	2454	2441
39.15	2446	2441
39.16	2452	2440
39.17	2486	2440
39.18	2522	2439
39.19	2513	2438
39.2	2460	2438
39.21	2479	2437
39.22	2517	2437
39.23	2517	2436
39.24	2465	2435
39.25	2433	2435
39.26	2420	2434
39.27	2487	2434
39.28	2439	2433
39.29	2420	2433
39.3	2483	2432
39.31	2499	2431
39.32	2481	2431
39.33	2480	2430
39.34	2491	2430
39.35	2439	2429
39.36	2419	2429
39.37	2469	2428
39.38	2442	2428
39.39	2444	2427
39.4	2458	2426
39.41	2544	2426
39.42	2516	2425
39.43	2456	2425
39.44	2500	2424
39.45	2447	2424
39.46	2410	2423
39.47	2453	2423
39.48	2410	2422
39.49	2374	2421
39.5	2396	2421
39.51	2441	2420
39.52	2479	2420
39.53	2468	2419
39.54	2440	2419
39.55	2465	2418
39.56	2427	2418
39.57	2445	2417
39.58	2459	2417
39.59	2390	2416
39.6	2401	2415
39.61	2420	2415
39.62	2480	2414
39.63	2515	2414
39.64	2439	2413
39.65	2457	2413
39.66	2481	2412
39.67	2463	2412
39.68	2476	2411
39.69	2474	2411
39.7	2465	2410
39.71	2426	2410
39.72	2418	2409
39.73	2463	2409
39.74	2450	2408
39.75	2454	2407
39.76	2474	2407
39.77	2387	2406
39.78	2385	2406
39.79	2399	2405
39.8	2438	2405
39.81	2512	2404
39.82	2433	2404
39.83	2462	2403
39.84	2425	2403
39.85	2420	2402
39.86	2409	2402
39.87	2420	2401
39.88	2382	2401
39.89	2400	2400
39.9	2455	2400
39.91	2456	2399
39.92	2451	2399
39.93	2438	2398
39.94	2443	2398
39.95	2427	2397
39.96	2418	2397
39.97	2417	2396
39.98	2374	2396
39.99	2378	2395
40.0	2460	2395
40.01	2458	2394
40.02	2401	2394
40.03	2388	2393
40.04	2353	2393
40.05	2331	2392
40.06	2387	2392
40.07	2381	2391
40.08	2417	2391
40.09	2461	2390
40.1	2411	2390
40.11	2363	2389
40.12	2413	2389
40.13	2419	2388
40.14	2420	2388
40.15	2359	2387
40.16	2383	2387
40.17	2437	2386
40.18	2445	2386
40.19	2422	2385
40.2	2393	2385
40.21	2368	2384
40.22	2377	2384
40.23	2404	2383
40.24	2358	2383
40.25	2415	2382
40.26	2460	2382
40.27	2460	2381
40.28	2438	2381
40.29	2436	2380
40.3	2460	2380
40.31	2440	2379
40.32	2440	2379
40.33	2447	2378
40.34	2447	2378
40.35	2446	2377
40.36	2466	2377
40.37	2454	2377
40.38	2451	2376
40.39	2395	2376
40.4	2421	2375
40.41	2416	2375
40.42	2446	2374
40.43	2415	2374
40.44	2370	2373
40.45	2406	2373
40.46	2478	2372
40.47	2492	2372
40.48	2419	2371
40.49	2413	2371
40.5	2377	2370
40.51	2405	2370
40.52	2461	2369
40.53	2481	2369
40.54	2418	2368
40.55	2418	2368
40.56	2443	2368
40.57	2492	2367
40.58	2466	2367
40.59	2503	2366
40.6	2399	2366
40.61	2428	2365
40.62	2451	2365
40.63	2484	2364
40.64	2460	2364
40.65	2432	2363
40.66	2487	2363
40.67	2495	2362
40.68	2462	2362
40.69	2451	2361
40.7	2448	2361
40.71	2417	2361
40.72	2424	2360
40.73	2477	2360
40.74	2530	2359
40.75	2499	2359
40.76	2470	2358
40.77	2535	2358
40.78	2560	2357
40.79	2564	2357
40.8	2530	2356
40.81	2591	2356
40.82	2601	2356
40.83	2608	2355
40.84	2657	2355
40.85	2654	2354
40.86	2630	2354
40.87	2684	2353
40.88	2734	2353
40.89	2797	2352
40.9	2802	2352
40.91	2829	2351
40.92	2919	2351
40.93	3010	2351
40.94	3090	2350
40.95	3204	2350
40.96	3301	2349
40.97	3370	2349
40.98	3484	2348
40.99	3534	2348
41.0	3662	2347
41.01	3661	2347
41.02	3591	2346
41.03	3585	2346
41.04	3579	2346
41.05	3457	2345
41.06	3337	2345
41.07	3335	2344
41.08	3270	2344
41.09	3279	2343
41.1	3252	2343
41.11	3183	2342
41.12	3109	2342
41.13	3005	2342
41.14	2907	2341
41.15	2928	2341
41.16	2878	2340
41.17	2799	2340
41.18	2704	2339
41.19	2665	2339
41.2	2699	2338
41.21	2644	2338
41.22	2572	2338
41.23	2575	2337
41.24	2507	2337
41.25	2457	2336
41.26	2521	2336
41.27	2483	2335
41.28	2484	2335
41.29	2441	2334
41.3	2514	2334
41.31	2460	2334
41.32	2428	2333
41.33	2450	2333
41.34	2457	2332
41.35	2459	2332
41.36	2512	2331
41.37	2477	2331
41.38	2440	2330
41.39	2453	2330
41.4	2422	2330
41.41	2371	2329
41.42	2420	2329
41.43	2466	2328
41.44	2440	2328
41.45	2479	2327
41.46	2454	2327
41.47	2419	2327
41.48	2352	2326
41.49	2356	2326
41.5	2409	2325
41.51	2381	2325
41.52	2410	2324
41.53	2420	2324
41.54	2374	2323
41.55	2370	2323
41.56	2411	2323
41.57	2433	2322
41.58	2421	2322
41.59	2407	2321
41.6	2371	2321
41.61	2407	2320
41.62	2387	2320
41.63	2379	2320
41.64	2361	2319
41.65	2378	2319
41.66	2403	2318
41.67	2367	2318
41.68	2417	2317
41.69	2412	2317
41.7	2408	2316
41.71	2461	2316
41.72	2463	2316
41.73	2366	2315
41.74	2311	2315
41.75	2446	2314
41.76	2386	2314
41.77	2419	2313
41.78	2440	2313
41.79	2375	2313
41.8	2366	2312
41.81	2428	2312
41.82	2400	2311
41.83	2390	2311
41.84	2403	2310
41.85	2412	2310
41.86	2437	2309
41.87	2389	2309
41.88	2344	2309
41.89	2407	2308
41.9	2422	2308
41.91	2376	2307
41.92	2361	2307
41.93	2362	2306
41.94	2330	2306
41.95	2315	2305
41.96	2335	2305
41.97	2389	2305
41.98	2366	2304
41.99	2325	2304
42.0	2338	2303
42.01	2345	2303
42.02	2328	2302
42.03	2359	2302
42.04	2372	2302
42.05	2379	2301
42.06	2373	2301
42.07	2369	2300
42.08	2355	2300
42.09	2426	2299
42.1	2443	2299
42.11	2385	2298
42.12	2321	2298
42.13	2314	2298
42.14	2294	2297
42.15	2288	2297
42.16	2333	2296
42.17	2317	2296
42.18	2344	2295
42.19	2350	2295
42.2	2392	2294
42.21	2318	2294
42.22	2355	2294
42.23	2414	2293
42.24	2408	2293
42.25	2345	2292
42.26	2353	2292
42.27	2338	2291
42.28	2370	2291
42.29	2381	2290
42.3	2381	2290
42.31	2354	2290
42.32	2396	2289
42.33	2430	2289
42.34	2324	2288
42.35	2348	2288
42.36	2382	2287
42.37	2425	2287
42.38	2400	2286
42.39	2377	2286
42.4	2354	2286
42.41	2376	2285
42.42	2419	2285
42.43	2404	2284
42.44	2393	2284
42.45	2415	2283
42.46	2406	2283
42.47	2360	2282
42.48	2383	2282
42.49	2332	2282
42.5	2314	2281
42.51	2361	2281
42.52	2388	2280
42.53	2339	2280
42.54	2416	2279
42.55	2440	2279
42.56	2485	2278
42.57	2428	2278
42.58	2475	2277
42.59	2425	2277
42.6	2445	2277
42.61	2431	2276
42.62	2527	2276
42.63	2542	2275
42.64	2530	2275
42.65	2526	2274
42.66	2482	2274
42.67	2529	2273
42.68	2613	2273
42.69	2653	2273
42.7	2761	2272
42.71	2776	2272
42.72	2882	2271
42.73	3029	2271
42.74	3080	2270
42.75	3149	2270
42.76	3297	2269
42.77	3541	2269
42.78	3654	2268
42.79	3770	2268
42.8	3890	2268
42.81	3920	2267
42.82	3903	2267
42.83	3851	2266
42.84	3779	2266
42.85	3648	2265
42.86	3462	2265
42.87	3315	2264
42.88	3297	2264
42.89	3318	2263
42.9	3310	2263
42.91	3264	2263
42.92	3242	2262
42.93	3171	2262
42.94	3032	2261
42.95	3012	2261
42.96	2922	2260
42.97	2825	2260
42.98	2707	2259
42.99	2692	2259
43.0	2627	2258
43.01	2597	2258
43.02	2483	2258
43.03	2408	2257
43.04	2411	2257
43.05	2394	2256
43.06	2392	2256
43.07	2420	2255
43.08	2416	2255
43.09	2368	2254
43.1	2353	2254
43.11	2349	2253
43.12	2360	2253
43.13	2355	2253
43.14	2349	2252
43.15	2302	2252
43.16	2356	2251
43.17	2404	2251
43.18	2304	2250
43.19	2271	2250
43.2	2357	2249
43.21	2315	2249
43.22	2302	2248
43.23	2253	2248
43.24	2360	2248
43.25	2323	2247
43.26	2321	2247
43.27	2281	2246
43.28	2310	2246
43.29	2295	2245
43.3	2279	2245
43.31	2297	2244
43.32	2307	2244
43.33	2227	2243
43.34	2205	2243
43.35	2217	2242
43.36	2298	2242
43.37	2251	2242
43.38	2244	2241
43.39	2302	2241
43.4	2266	2240
43.41	2278	2240
43.42	2301	2239
43.43	2335	2239
43.44	2200	2238
43.45	2259	2238
43.46	2322	2237
43.47	2300	2237
43.48	2290	2237
43.49	2268	2236
43.5	2262	2236
43.51	2221	2235
43.52	2192	2235
43.53	2219	2234
43.54	2290	2234
43.55	2282	2233
43.56	2250	2233
43.57	2202	2232
43.58	2271	2232
43.59	2269	2231
43.6	2269	2231
43.61	2287	2231
43.62	2265	2230
43.63	2229	2230
43.64	2242	2229
43.65	2266	2229
43.66	2245	2228
43.67	2279	2228
43.68	2233	2227
43.69	2255	2227
43.7	2205	2226
43.71	2207	2226
43.72	2284	2225
43.73	2304	2225
43.74	2308	2225
43.75	2296	2224
43.76	2262	2224
43.77	2258	2223
43.78	2255	2223
43.79	2239	2222
43.8	2286	2222
43.81	2264	2221
43.82	2313	2221
43.83	2300	2220
43.84	2270	2220
43.85	2217	2219
43.86	2264	2219
43.87	2284	2219
43.88	2198	2218
43.89	2150	2218
43.9	2229	2217
43.91	2264	2217
43.92	2271	2216
43.93	2269	2216
43.94	2256	2215
43.95	2228	2215
43.96	2245	2214
43.97	2258	2214
43.98	2263	2213
43.99	2255	2213
44.0	2186	2213
44.01	2213	2212
44.02	2198	2212
44.03	2188	2211
44.04	2172	2211
44.05	2227	2210
44.06	2266	2210
44.07	2206	2209
44.08	2209	2209
44.09	2274	2208
44.1	2261	2208
44.11	2175	2207
44.12	2171	2207
44.13	2218	2207
44.14	2217	2206
44.15	2199	2206
44.16	2245	2205
44.17	2228	2205
44.18	2213	2204
44.19	2197	2204
44.2	2215	2203
44.21	2228	2203
44.22	2221	2202
44.23	2194	2202
44.24	2244	2201
44.25	2197	2201
44.26	2204	2200
44.27	2230	2200
44.28	2284	2200
44.29	2231	2199
44.3	2171	2199
44.31	2196	2198
44.32	2242	2198
44.33	2224	2197
44.34	2206	2197
44.35	2192	2196
44.36	2180	2196
44.37	2267	2195
44.38	2240	2195
44.39	2159	2194
44.4	2189	2194
44.41	2189	2194
44.42	2246	2193
44.43	2205	2193
44.44	2189	2192
44.45	2213	2192
44.46	2204	2191
44.47	2182	2191
44.48	2194	2190
44.49	2247	2190
44.5	2225	2189
44.51	2210	2189
44.52	2209	2188
44.53	2218	2188
44.54	2233	2188
44.55	2223	2187
44.56	2188	2187
44.57	2247	2186
44.58	2217	2186
44.59	2198	2185
44.6	2188	2185
44.61	2146	2184
44.62	2139	2184
44.63	2230	2183
44.64	2209	2183
44.65	2139	2182
44.66	2138	2182
44.67	2168	2182
44.68	2179	2181
44.69	2180	2181
44.7	2129	2180
44.71	2167	2180
44.72	2206	2179
44.73	2196	2179
44.74	2193	2178
44.75	2260	2178
44.76	2220	2177
44.77	2165	2177
44.78	2187	2176
44.79	2215	2176
44.8	2198	2176
44.81	2171	2175
44.82	2159	2175
44.83	2204	2174
44.84	2228	2174
44.85	2195	2173
44.86	2214	2173
44.87	2222	2172
44.88	2194	2172
44.89	2172	2171
44.9	2157	2171
44.91	2190	2170
44.92	2214	2170
44.93	2143	2170
44.94	2116	2169
44.95	2170	2169
44.96	2161	2168
44.97	2184	2168
44.98	2250	2167
44.99	2247	2167
45.0	2219	2166
45.01	2194	2166
45.02	2220	2165
45.03	2218	2165
45.04	2158	2164
45.05	2182	2164
45.06	2156	2164
45.07	2119	2163
45.08	2120	2163
45.09	2131	2162
45.1	2114	2162
45.11	2157	2161
45.12	2193	2161
45.13	2251	2160
45.14	2196	2160
45.15	2201	2159
45.16	2157	2159
45.17	2151	2159
45.18	2145	2158
45.19	2157	2158
45.2	2175	2157
45.21	2181	2157
45.22	2188	2156
45.23	2178	2156
45.24	2193	2155
45.25	2159	2155
45.26	2173	2154
45.27	2201	2154
45.28	2154	2153
45.29	2145	2153
45.3	2226	2153
45.31	2219	2152
45.32	2210	2152
45.33	2198	2151
45.34	2158	2151
45.35	2147	2150
45.36	2172	2150
45.37	2177	2149
45.38	2194	2149
45.39	2224	2148
45.4	2203	2148
45.41	2176	2148
45.42	2154	2147
45.43	2123	2147
45.44	2138	2146
45.45	2145	2146
45.46	2180	2145
45.47	2166	2145
45.48	2129	2144
45.49	2145	2144
45.5	2158	2143
45.51	2186	2143
45.52	2197	2143
45.53	2155	2142
45.54	2161	2142
45.55	2169	2141
45.56	2192	2141
45.57	2205	2140
45.58	2140	2140
45.59	2155	2139
45.6	2198	2139
45.61	2166	2138
45.62	2143	2138
45.63	2134	2138
45.64	2174	2137
45.65	2191	2137
45.66	2179	2136
45.67	2191	2136
45.68	2175	2135
45.69	2202	2135
45.7	2212	2134
45.71	2186	2134
45.72	2198	2133
45.73	2240	2133
45.74	2209	2133
45.75	2162	2132
45.76	2174	2132
45.77	2189	2131
45.78	2217	2131
45.79	2202	2130
45.8	2177	2130
45.81	2224	2129
45.82	2206	2129
45.83	2194	2128
45.84	2184	2128
45.85	2183	2128
45.86	2201	2127
45.87	2192	2127
45.88	2166	2126
45.89	2188	2126
45.9	2255	2125
45.91	2250	2125
45.92	2248	2124
45.93	2270	2124
45.94	2262	2124
45.95	2257	2123
45.96	2338	2123
45.97	2337	2122
45.98	2391	2122
45.99	2364	2121
46.0	2399	2121
46.01	2424	2120
46.02	2469	2120
46.03	2511	2119
46.04	2599	2119
46.05	2657	2119
46.06	2724	2118
46.07	2821	2118
46.08	2842	2117
46.09	2901	2117
46.1	2957	2116
46.11	2981	2116
46.12	3009	2115
46.13	2995	2115
46.14	2876	2115
46.15	2833	2114
46.16	2812	2114
46.17	2743	2113
46.18	2720	2113
46.19	2700	2112
46.2	2668	2112
46.21	2682	2111
46.22	2691	2111
46.23	2654	2111
46.24	2611	2110
46.25	2580	2110
46.26	2475	2109
46.27	2422	2109
46.28	2429	2108
46.29	2396	2108
46.3	2388	2107
46.31	2380	2107
46.32	2327	2107
46.33	2268	2106
46.34	2260	2106
46.35	2272	2105
46.36	2219	2105
46.37	2203	2104
46.38	2196	2104
46.39	2176	2103
46.4	2217	2103
46.41	2257	2103
46.42	2220	2102
46.43	2189	2102
46.44	2217	2101
46.45	2240	2101
46.46	2233	2100
46.47	2193	2100
46.48	2167	2100
46.49	2190	2099
46.5	2174	2099
46.51	2135	2098
46.52	2137	2098
46.53	2162	2097
46.54	2177	2097
46.55	2147	2096
46.56	2124	2096
46.57	2120	2096
46.58	2129	2095
46.59	2110	2095
46.6	2124	2094
46.61	2120	2094
46.62	2128	2093
46.63	2149	2093
46.64	2148	2093
46.65	2155	2092
46.66	2160	2092
46.67	2172	2091
46.68	2149	2091
46.69	2147	2090
46.7	2169	2090
46.71	2144	2089
46.72	2129	2089
46.73	2171	2089
46.74	2213	2088
46.75	2201	2088
46.76	2160	2087
46.77	2188	2087
46.78	2161	2086
46.79	2121	2086
46.8	2147	2086
46.81	2137	2085
46.82	2107	2085
46.83	2120	2084
46.84	2145	2084
46.85	2168	2083
46.86	2186	2083
46.87	2198	2083
46.88	2188	2082
46.89	2122	2082
46.9	2114	2081
46.91	2144	2081
46.92	2101	2080
46.93	2130	2080
46.94	2142	2080
46.95	2129	2079
46.96	2149	2079
46.97	2145	2078
46.98	2125	2078
46.99	2120	2077
47.0	2144	2077
47.01	2185	2077
47.02	2151	2076
47.03	2127	2076
47.04	2160	2075
47.05	2165	2075
47.06	2199	2074
47.07	2208	2074
47.08	2156	2074
47.09	2138	2073
47.1	2155	2073
47.11	2182	2072
47.12	2224	2072
47.13	2187	2071
47.14	2129	2071
47.15	2142	2071
47.16	2129	2070
47.17	2141	2070
47.18	2138	2069
47.19	2112	2069
47.2	2093	2068
47.21	2094	2068
47.22	2117	2068
47.23	2090	2067
47.24	2102	2067
47.25	2148	2066
47.26	2127	2066
47.27	2124	2065
47.28	2131	2065
47.29	2114	2065
47.3	2109	2064
47.31	2141	2064
47.32	2163	2063
47.33	2175	2063
47.34	2153	2063
47.35	2150	2062
47.36	2156	2062
47.37	2143	2061
47.38	2144	2061
47.39	2142	2060
47.4	2135	2060
47.41	2118	2060
47.42	2090	2059
47.43	2122	2059
47.44	2159	2058
47.45	2145	2058
47.46	2143	2058
47.47	2128	2057
47.48	2119	2057
47.49	2152	2056
47.5	2155	2056
47.51	2121	2055
47.52	2120	2055
47.53	2138	2055
47.54	2149	2054
47.55	2108	2054
47.56	2102	2053
47.57	2138	2053
47.58	2155	2053
47.59	2140	2052
47.6	2128	2052
47.61	2132	2051
47.62	2095	2051
47.63	2130	2051
47.64	2122	2050
47.65	2106	2050
47.66	2101	2049
47.67	2132	2049
47.68	2164	2048
47.69	2124	2048
47.7	2117	2048
47.71	2133	2047
47.72	2142	2047
47.73	2127	2046
47.74	2159	2046
47.75	2212	2046
47.76	2194	2045
47.77	2160	2045
47.78	2155	2044
47.79	2143	2044
47.8	2151	2044
47.81	2121	2043
47.82	2144	2043
47.83	2187	2042
47.84	2178	2042
47.85	2159	2042
47.86	2159	2041
47.87	2155	2041
47.88	2112	2040
47.89	2069	2040
47.9	2064	2040
47.91	2108	2039
47.92	2111	2039
47.93	2139	2038
47.94	2129	2038
47.95	2114	2038
47.96	2120	2037
47.97	2118	2037
47.98	2122	2036
47.99	2116	2036
48.0	2113	2036
48.01	2100	2035
48.02	2120	2035
48.03	2130	2034
48.04	2087	2034
48.05	2056	2034
48.06	2070	2033
48.07	2111	2033
48.08	2094	2032
48.09	2064	2032
48.1	2089	2032
48.11	2115	2031
48.12	2070	2031
48.13	2045	2030
48.14	2124	2030
48.15	2168	2030
48.16	2123	2029
48.17	2106	2029
48.18	2092	2028
48.19	2078	2028
48.2	2076	2028
48.21	2100	2027
48.22	2118	2027
48.23	2137	2027
48.24	2105	2026
48.25	2091	2026
48.26	2036	2025
48.27	2037	2025
48.28	2081	2025
48.29	2100	2024
48.3	2124	2024
48.31	2104	2023
48.32	2088	2023
48.33	2083	2023
48.34	2061	2022
48.35	2074	2022
48.36	2124	2022
48.37	2140	2021
48.38	2138	2021
48.39	2129	2020
48.4	2160	2020
48.41	2130	2020
48.42	2059	2019
48.43	2085	2019
48.44	2124	2018
48.45	2132	2018
48.46	2092	2018
48.47	2104	2017
48.48	2097	2017
48.49	2078	2017
48.5	2119	2016
48.51	2129	2016
48.52	2088	2015
48.53	2065	2015
48.54	2078	2015
48.55	2085	2014
48.56	2065	2014
48.57	2073	2014
48.58	2076	2013
48.59	2068	2013
48.6	2078	2012
48.61	2086	2012
48.62	2125	2012
48.63	2141	2011
48.64	2132	2011
48.65	2083	2011
48.66	2050	2010
48.67	2084	2010
48.68	2118	2009
48.69	2131	2009
48.7	2066	2009
48.71	2055	2008
48.72	2111	2008
48.73	2098	2008
48.74	2067	2007
48.75	2063	2007
48.76	2061	2006
48.77	2084	2006
48.78	2109	2006
48.79	2088	2005
48.8	2068	2005
48.81	2077	2005
48.82	2103	2004
48.83	2080	2004
48.84	2050	2004
48.85	2069	2003
48.86	2076	2003
48.87	2056	2002
48.88	2075	2002
48.89	2072	2002
48.9	2053	2001
48.91	2072	2001
48.92	2115	2001
48.93	2108	2000
48.94	2064	2000
48.95	2069	2000
48.96	2052	1999
48.97	2037	1999
48.98	2078	1998
48.99	2101	1998
49.0	2092	1998
49.01	2106	1997
49.02	2117	1997
49.03	2105	1997
49.04	2083	1996
49.05	2035	1996
49.06	1997	1996
49.07	2015	1995
49.08	2064	1995
49.09	2093	1994
49.1	2104	1994
49.11	2121	1994
49.12	2125	1993
49.13	2093	1993
49.14	2050	1993
49.15	2015	1992
49.16	2037	1992
49.17	2064	1992
49.18	2033	1991
49.19	2009	1991
49.2	2047	1991
49.21	2075	1990
49.22	2060	1990
49.23	2057	1990
49.24	2074	1989
49.25	2091	1989
49.26	2097	1989
49.27	2081	1988
49.28	2047	1988
49.29	2025	1988
49.3	2036	1987
49.31	2056	1987
49.32	2091	1986
49.33	2086	1986
49.34	2064	1986
49.35	2049	1985
49.36	2029	1985
49.37	2046	1985
49.38	2061	1984
49.39	2018	1984
49.4	1994	1984
49.41	2019	1983
49.42	2047	1983
49.43	2036	1983
49.44	2000	1982
49.45	1999	1982
49.46	2012	1982
49.47	2033	1981
49.48	2049	1981
49.49	2032	1981
49.5	2015	1980
49.51	2045	1980
49.52	2054	1980
49.53	2038	1979
49.54	2018	1979
49.55	2026	1979
49.56	2024	1978
49.57	2006	1978
49.58	2019	1978
49.59	2070	1977
49.6	2065	1977
49.61	2043	1977
49.62	2044	1976
49.63	2043	1976
49.64	2030	1976
49.65	2004	1975
49.66	1997	1975
49.67	2018	1975
49.68	2049	1974
49.69	2061	1974
49.7	2077	1974
49.71	2058	1973
49.72	2030	1973
49.73	2012	1973
49.74	2012	1972
49.75	2008	1972
49.76	2029	1972
49.77	2041	1971
49.78	2054	1971
49.79	2046	1971
49.8	2016	1971
49.81	2026	1970
49.82	2031	1970
49.83	2014	1970
49.84	1993	1969
49.85	2007	1969
49.86	2031	1969
49.87	2028	1968
49.88	2001	1968
49.89	2018	1968
49.9	2039	1967
49.91	2035	1967
49.92	2029	1967
49.93	2031	1966
49.94	2020	1966
49.95	1998	1966
49.96	2001	1965
49.97	2001	1965
49.98	1987	1965
49.99	1987	1965
50.0	2010	1964
50.01	2019	1964
50.02	1987	1964
50.03	1938	1963
50.04	1946	1963
50.05	1989	1963
50.06	1999	1962
50.07	1998	1962
50.08	2012	1962
50.09	2017	1961
50.1	1994	1961
50.11	1997	1961
50.12	2013	1961
50.13	2014	1960
50.14	2001	1960
50.15	1972	1960
50.16	1979	1959
50.17	1976	1959
50.18	1972	1959
50.19	1997	1958
50.2	1998	1958
50.21	2009	1958
50.22	2009	1958
50.23	2003	1957
50.24	1979	1957
50.25	1968	1957
50.26	1979	1956
50.27	1966	1956
50.28	1977	1956
50.29	1998	1955
50.3	1986	1955
50.31	1970	1955
50.32	1971	1955
50.33	1965	1954
50.34	1966	1954
50.35	2014	1954
50.36	2010	1953
50.37	1993	1953
50.38	2037	1953
50.39	2037	1953
50.4	2007	1952
50.41	1966	1952
50.42	1958	1952
50.43	1976	1951
50.44	1993	1951
50.45	2007	1951
50.46	1997	1950
50.47	1993	1950
50.48	1954	1950
50.49	1924	1950
50.5	1935	1949
50.51	1943	1949
50.52	1961	1949
50.53	2012	1949
50.54	2050	1948
50.55	2006	1948
50.56	1974	1948
50.57	1967	1947
50.58	1945	1947
50.59	1932	1947
50.6	1926	1947
50.61	1944	1946
50.62	1980	1946
50.63	1986	1946
50.64	1970	1945
50.65	1959	1945
50.66	1945	1945
50.67	1942	1945
50.68	1953	1944
50.69	1947	1944
50.7	1961	1944
50.71	1988	1943
50.72	1988	1943
50.73	1973	1943
50.74	1960	1943
50.75	1936	1942
50.76	1915	1942
50.77	1926	1942
50.78	1932	1942
50.79	1923	1941
50.8	1928	1941
50.81	1953	1941
50.82	1983	1940
50.83	1989	1940
50.84	1965	1940
50.85	1979	1940
50.86	2005	1939
50.87	1982	1939
50.88	1969	1939
50.89	1973	1939
50.9	1965	1938
50.91	1980	1938
50.92	1982	1938
50.93	1975	1938
50.94	1973	1937
50.95	1950	1937
50.96	1924	1937
50.97	1909	1937
50.98	1906	1936
50.99	1957	1936
51.0	1985	1936
51.01	1951	1935
51.02	1976	1935
51.03	1988	1935
51.04	1958	1935
51.05	1934	1934
51.06	1959	1934
51.07	1979	1934
51.08	1959	1934
51.09	1980	1933
51.1	1958	1933
51.11	1932	1933
51.12	1955	1933
51.13	1963	1932
51.14	1954	1932
51.15	1951	1932
51.16	1960	1932
51.17	1977	1931
51.18	1971	1931
51.19	1930	1931
51.2	1907	1931
51.21	1950	1930
51.22	1993	1930
51.23	1964	1930
51.24	1930	1930
51.25	1934	1929
51.26	1961	1929
51.27	1956	1929
51.28	1931	1929
51.29	1929	1928
51.3	1926	1928
51.31	1957	1928
51.32	1979	1928
51.33	1956	1927
51.34	1945	1927
51.35	1938	1927
51.36	1943	1927
51.37	1933	1926
51.38	1902	1926
51.39	1903	1926
51.4	1943	1926
51.41	1950	1925
51.42	1923	1925
51.43	1907	1925
51.44	1918	1925
51.45	1958	1924
51.46	1945	1924
51.47	1920	1924
51.48	1921	1924
51.49	1951	1923
51.5	1947	1923
51.51	1890	1923
51.52	1883	1923
51.53	1905	1922
51.54	1920	1922
51.55	1935	1922
51.56	1949	1922
51.57	1943	1921
51.58	1926	1921
51.59	1917	1921
51.6	1931	1921
51.61	1956	1921
51.62	1909	1920
51.63	1878	1920
51.64	1936	1920
51.65	1945	1920
51.66	1917	1919
51.67	1923	1919
51.68	1921	1919
51.69	1926	1919
51.7	1934	1918
51.71	1933	1918
51.72	1931	1918
51.73	1914	1918
51.74	1918	1918
51.75	1919	1917
51.76	1943	1917
51.77	1970	1917
51.78	1945	1917
51.79	1895	1916
51.8	1880	1916
51.81	1907	1916
51.82	1909	1916
51.83	1897	1915
51.84	1919	1915
51.85	1957	1915
51.86	1939	1915
51.87	1920	1915
51.88	1935	1914
51.89	1916	1914
51.9	1894	1914
51.91	1920	1914
51.92	1942	1913
51.93	1911	1913
51.94	1903	1913
51.95	1945	1913
51.96	1942	1912
51.97	1907	1912
51.98	1934	1912
51.99	1948	1912
52.0	1934	1912
52.01	1937	1911
52.02	1935	1911
52.03	1925	1911
52.04	1912	1911
52.05	1909	1910
52.06	1934	1910
52.07	1931	1910
52.08	1912	1910
52.09	1927	1910
52.1	1913	1909
52.11	1930	1909
52.12	1982	1909
52.13	1992	1909
52.14	1967	1909
52.15	1939	1908
52.16	1975	1908
52.17	1955	1908
52.18	1908	1908
52.19	1892	1907
52.2	1885	1907
52.21	1898	1907
52.22	1911	1907
52.23	1924	1907
52.24	1931	1906
52.25	1911	1906
52.26	1897	1906
52.27	1935	1906
52.28	1953	1905
52.29	1936	1905
52.3	1958	1905
52.31	1944	1905
52.32	1912	1905
52.33	1887	1904
52.34	1853	1904
52.35	1842	1904
52.36	1852	1904
52.37	1851	1904
52.38	1870	1903
52.39	1893	1903
52.4	1930	1903
52.41	1932	1903
52.42	1929	1903
52.43	1944	1902
52.44	1928	1902
52.45	1918	1902
52.46	1923	1902
52.47	1909	1901
52.48	1917	1901
52.49	1959	1901
52.5	1989	1901
52.51	1950	1901
52.52	1916	1900
52.53	1916	1900
52.54	1904	1900
52.55	1893	1900
52.56	1901	1900
52.57	1895	1899
52.58	1877	1899
52.59	1920	1899
52.6	1954	1899
52.61	1943	1899
52.62	1924	1898
52.63	1910	1898
52.64	1905	1898
52.65	1900	1898
52.66	1873	1898
52.67	1860	1897
52.68	1921	1897
52.69	1935	1897
52.7	1877	1897
52.71	1852	1897
52.72	1859	1896
52.73	1849	1896
52.74	1843	1896
52.75	1828	1896
52.76	1863	1896
52.77	1900	1895
52.78	1929	1895
52.79	1906	1895
52.8	1885	1895
52.81	1868	1895
52.82	1896	1894
52.83	1937	1894
52.84	1902	1894
52.85	1853	1894
52.86	1853	1894
52.87	1876	1893
52.88	1891	1893
52.89	1889	1893
52.9	1889	1893
52.91	1910	1893
52.92	1885	1892
52.93	1869	1892
52.94	1893	1892
52.95	1906	1892
52.96	1893	1892
52.97	1889	1891
52.98	1870	1891
52.99	1837	1891
53.0	1840	1891
53.01	1885	1891
53.02	1902	1890
53.03	1902	1890
53.04	1860	1890
53.05	1866	1890
53.06	1915	1890
53.07	1888	1890
53.08	1870	1889
53.09	1918	1889
53.1	1901	1889
53.11	1855	1889
53.12	1916	1889
53.13	1933	1888
53.14	1873	1888
53.15	1867	1888
53.16	1882	1888
53.17	1894	1888
53.18	1904	1887
53.19	1925	1887
53.2	1900	1887
53.21	1873	1887
53.22	1849	1887
53.23	1850	1886
53.24	1856	1886
53.25	1876	1886
53.26	1926	1886
53.27	1962	1886
53.28	1928	1886
53.29	1886	1885
53.3	1910	1885
53.31	1927	1885
53.32	1914	1885
53.33	1896	1885
53.34	1924	1884
53.35	1933	1884
53.36	1869	1884
53.37	1884	1884
53.38	1912	1884
53.39	1894	1883
53.4	1913	1883
53.41	1908	1883
53.42	1902	1883
53.43	1925	1883
53.44	1889	1883
53.45	1888	1882
53.46	1950	1882
53.47	1961	1882
53.48	1918	1882
53.49	1899	1882
53.5	1907	1881
53.51	1882	1881
53.52	1849	1881
53.53	1880	1881
53.54	1910	1881
53.55	1903	1881
53.56	1926	1880
53.57	1946	1880
53.58	1912	1880
53.59	1901	1880
53.6	1883	1880
53.61	1891	1879
53.62	1880	1879
53.63	1855	1879
53.64	1913	1879
53.65	1915	1879
53.66	1896	1879
53.67	1888	1878
53.68	1886	1878
53.69	1900	1878
53.7	1902	1878
53.71	1880	1878
53.72	1887	1877
53.73	1918	1877
53.74	1895	1877
53.75	1897	1877
53.76	1891	1877
53.77	1861	1877
53.78	1861	1876
53.79	1881	1876
53.8	1890	1876
53.81	1871	1876
53.82	1928	1876
53.83	1924	1876
53.84	1879	1875
53.85	1875	1875
53.86	1912	1875
53.87	1918	1875
53.88	1878	1875
53.89	1872	1874
53.9	1895	1874
53.91	1891	1874
53.92	1858	1874
53.93	1874	1874
53.94	1908	1874
53.95	1888	1873
53.96	1842	1873
53.97	1848	1873
53.98	1888	1873
53.99	1899	1873
54.0	1854	1873
54.01	1828	1872
54.02	1838	1872
54.03	1883	1872
54.04	1878	1872
54.05	1880	1872
54.06	1899	1871
54.07	1893	1871
54.08	1889	1871
54.09	1900	1871
54.1	1920	1871
54.11	1928	1871
54.12	1928	1870
54.13	1917	1870
54.14	1886	1870
54.15	1862	1870
54.16	1849	1870
54.17	1860	1870
54.18	1876	1869
54.19	1848	1869
54.2	1896	1869
54.21	1931	1869
54.22	1878	1869
54.23	1896	1869
54.24	1930	1868
54.25	1922	1868
54.26	1895	1868
54.27	1870	1868
54.28	1879	1868
54.29	1890	1868
54.3	1906	1867
54.31	1934	1867
54.32	1918	1867
54.33	1886	1867
54.34	1876	1867
54.35	1865	1866
54.36	1862	1866
54.37	1879	1866
54.38	1888	1866
54.39	1909	1866
54.4	1910	1866
54.41	1918	1865
54.42	1874	1865
54.43	1848	1865
54.44	1884	1865
54.45	1904	1865
54.46	1905	1865
54.47	1879	1864
54.48	1881	1864
54.49	1871	1864
54.5	1865	1864
54.51	1907	1864
54.52	1914	1864
54.53	1905	1863
54.54	1925	1863
54.55	1924	1863
54.56	1921	1863
54.57	1919	1863
54.58	1917	1863
54.59	1908	1862
54.6	1903	1862
54.61	1896	1862
54.62	1934	1862
54.63	1956	1862
54.64	1947	1862
54.65	1928	1861
54.66	1889	1861
54.67	1854	1861
54.68	1898	1861
54.69	1948	1861
54.7	1930	1861
54.71	1889	1860
54.72	1905	1860
54.73	1915	1860
54.74	1907	1860
54.75	1909	1860
54.76	1901	1860
54.77	1880	1859
54.78	1893	1859
54.79	1907	1859
54.8	1872	1859
54.81	1848	1859
54.82	1873	1859
54.83	1926	1858
54.84	1922	1858
54.85	1913	1858
54.86	1883	1858
54.87	1882	1858
54.88	1952	1858
54.89	1931	1857
54.9	1868	1857
54.91	1903	1857
54.92	1919	1857
54.93	1912	1857
54.94	1914	1857
54.95	1923	1856
54.96	1922	1856
54.97	1894	1856
54.98	1873	1856
54.99	1845	1856
55.0	1855	1856
55.01	1910	1855
55.02	1934	1855
55.03	1917	1855
55.04	1911	1855
55.05	1895	1855
55.06	1919	1855
55.07	1923	1854
55.08	1929	1854
55.09	1931	1854
55.1	1890	1854
55.11	1853	1854
55.12	1858	1854
55.13	1905	1853
55.14	1900	1853
55.15	1897	1853
55.16	1893	1853
55.17	1904	1853
55.18	1879	1853
55.19	1838	1852
55.2	1866	1852
55.21	1922	1852
55.22	1945	1852
55.23	1925	1852
55.24	1902	1852
55.25	1880	1851
55.26	1855	1851
55.27	1891	1851
55.28	1940	1851
55.29	1928	1851
55.3	1935	1851
55.31	1944	1850
55.32	1908	1850
55.33	1843	1850
55.34	1828	1850
55.35	1872	1850
55.36	1901	1850
55.37	1868	1849
55.38	1897	1849
55.39	1959	1849
55.4	1938	1849
55.41	1883	1849
55.42	1860	1849
55.43	1886	1848
55.44	1928	1848
55.45	1969	1848
55.46	1939	1848
55.47	1916	1848
55.48	1912	1848
55.49	1911	1848
55.5	1927	1847
55.51	1893	1847
55.52	1901	1847
55.53	1925	1847
55.54	1941	1847
55.55	1903	1847
55.56	1867	1846
55.57	1867	1846
55.58	1890	1846
55.59	1897	1846
55.6	1882	1846
55.61	1867	1846
55.62	1869	1845
55.63	1892	1845
55.64	1911	1845
55.65	1912	1845
55.66	1873	1845
55.67	1834	1845
55.68	1858	1844
55.69	1910	1844
55.7	1922	1844
55.71	1916	1844
55.72	1960	1844
55.73	1915	1844
55.74	1860	1843
55.75	1894	1843
55.76	1895	1843
55.77	1888	1843
55.78	1914	1843
55.79	1939	1843
55.8	1927	1842
55.81	1915	1842
55.82	1888	1842
55.83	1915	1842
55.84	1935	1842
55.85	1902	1842
55.86	1902	1841
55.87	1892	1841
55.88	1892	1841
55.89	1890	1841
55.9	1893	1841
55.91	1936	1841
55.92	1911	1840
55.93	1905	1840
55.94	1938	1840
55.95	1938	1840
55.96	1946	1840
55.97	1906	1840
55.98	1919	1839
55.99	1907	1839
56.0	1905	1839
56.01	1942	1839
56.02	1950	1839
56.03	1958	1839
56.04	1972	1838
56.05	1967	1838
56.06	1946	1838
56.07	1925	1838
56.08	1938	1838
56.09	1936	1838
56.1	1946	1837
56.11	1951	1837
56.12	1949	1837
56.13	1962	1837
56.14	1989	1837
56.15	2027	1837
56.16	2006	1836
56.17	2021	1836
56.18	2016	1836
56.19	2032	1836
56.2	2069	1836
56.21	2070	1836
56.22	2086	1835
56.23	2144	1835
56.24	2151	1835
56.25	2128	1835
56.26	2123	1835
56.27	2118	1835
56.28	2141	1834
56.29	2176	1834
56.3	2182	1834
56.31	2173	1834
56.32	2189	1834
56.33	2220	1834
56.34	2279	1833
56.35	2263	1833
56.36	2279	1833
56.37	2261	1833
56.38	2312	1833
56.39	2362	1833
56.4	2381	1832
56.41	2395	1832
56.42	2431	1832
56.43	2476	1832
56.44	2496	1832
56.45	2530	1831
56.46	2553	1831
56.47	2617	1831
56.48	2725	1831
56.49	2838	1831
56.5	2980	1831
56.51	3068	1830
56.52	3226	1830
56.53	3400	1830
56.54	3572	1830
56.55	3853	1830
56.56	4205	1830
56.57	4587	1829
56.58	4942	1829
56.59	5479	1829
56.6	6110	1829
56.61	6727	1829
56.62	7280	1829
56.63	7917	1828
56.64	8513	1828
56.65	8870	1828
56.66	9156	1828
56.67	9259	1828
56.68	9051	1828
56.69	8623	1827
56.7	8081	1827
56.71	7441	1827
56.72	6776	1827
56.73	6348	1827
56.74	6116	1827
56.75	5914	1826
56.76	5747	1826
56.77	5775	1826
56.78	5914	1826
56.79	6005	1826
56.8	6035	1825
56.81	6053	1825
56.82	6067	1825
56.83	5831	1825
56.84	5512	1825
56.85	5136	1825
56.86	4694	1824
56.87	4288	1824
56.88	3949	1824
56.89	3706	1824
56.9	3475	1824
56.91	3204	1824
56.92	3010	1823
56.93	2892	1823
56.94	2768	1823
56.95	2644	1823
56.96	2588	1823
56.97	2562	1822
56.98	2484	1822
56.99	2397	1822
57.0	2341	1822
57.01	2346	1822
57.02	2369	1822
57.03	2324	1821
57.04	2251	1821
57.05	2212	1821
57.06	2190	1821
57.07	2151	1821
57.08	2152	1821
57.09	2159	1820
57.1	2179	1820
57.11	2159	1820
57.12	2111	1820
57.13	2091	1820
57.14	2110	1819
57.15	2097	1819
57.16	2095	1819
57.17	2080	1819
57.18	2084	1819
57.19	2094	1819
57.2	2058	1818
57.21	2026	1818
57.22	1989	1818
57.23	2009	1818
57.24	2024	1818
57.25	2020	1817
57.26	2035	1817
57.27	2000	1817
57.28	1963	1817
57.29	1966	1817
57.3	1974	1817
57.31	1962	1816
57.32	1926	1816
57.33	1901	1816
57.34	1913	1816
57.35	1948	1816
57.36	1932	1815
57.37	1944	1815
57.38	1888	1815
57.39	1864	1815
57.4	1877	1815
57.41	1890	1815
57.42	1918	1814
57.43	1943	1814
57.44	1943	1814
57.45	1918	1814
57.46	1895	1814
57.47	1879	1813
57.48	1904	1813
57.49	1921	1813
57.5	1905	1813
57.51	1879	1813
57.52	1843	1813
57.53	1854	1812
57.54	1870	1812
57.55	1868	1812
57.56	1896	1812
57.57	1865	1812
57.58	1827	1811
57.59	1847	1811
57.6	1927	1811
57.61	1897	1811
57.62	1903	1811
57.63	1930	1810
57.64	1896	1810
57.65	1869	1810
57.66	1869	1810
57.67	1868	1810
57.68	1883	1809
57.69	1858	1809
57.7	1896	1809
57.71	1918	1809
57.72	1881	1809
57.73	1843	1809
57.74	1899	1808
57.75	1920	1808
57.76	1898	1808
57.77	1888	1808
57.78	1898	1808
57.79	1852	1807
57.8	1809	1807
57.81	1858	1807
57.82	1825	1807
57.83	1852	1807
57.84	1876	1806
57.85	1861	1806
57.86	1894	1806
57.87	1869	1806
57.88	1813	1806
57.89	1775	1805
57.9	1804	1805
57.91	1837	1805
57.92	1843	1805
57.93	1868	1805
57.94	1888	1804
57.95	1837	1804
57.96	1817	1804
57.97	1859	1804
57.98	1843	1804
57.99	1772	1803
58.0	1776	1803
58.01	1830	1803
58.02	1833	1803
58.03	1828	1803
58.04	1860	1802
58.05	1870	1802
58.06	1842	1802
58.07	1844	1802
58.08	1841	1802
58.09	1832	1801
58.1	1837	1801
58.11	1832	1801
58.12	1859	1801
58.13	1867	1801
58.14	1856	1800
58.15	1845	1800
58.16	1864	1800
58.17	1870	1800
58.18	1901	1800
58.19	1887	1799
58.2	1845	1799
58.21	1838	1799
58.22	1812	1799
58.23	1840	1799
58.24	1858	1798
58.25	1856	1798
58.26	1833	1798
58.27	1803	1798
58.28	1836	1798
58.29	1854	1797
58.3	1855	1797
58.31	1834	1797
58.32	1830	1797
58.33	1867	1797
58.34	1842	1796
58.35	1819	1796
58.36	1843	1796
58.37	1867	1796
58.38	1871	1796
58.39	1888	1795
58.4	1867	1795
58.41	1834	1795
58.42	1885	1795
58.43	1889	1795
58.44	1825	1794
58.45	1847	1794
58.46	1824	1794
58.47	1856	1794
58.48	1883	1794
58.49	1854	1793
58.5	1809	1793
58.51	1822	1793
58.52	1856	1793
58.53	1837	1792
58.54	1815	1792
58.55	1830	1792
58.56	1845	1792
58.57	1838	1792
58.58	1855	1791
58.59	1878	1791
58.6	1834	1791
58.61	1855	1791
58.62	1903	1791
58.63	1883	1790
58.64	1846	1790
58.65	1895	1790
58.66	1838	1790
58.67	1838	1789
58.68	1823	1789
58.69	1823	1789
58.7	1864	1789
58.71	1910	1789
58.72	1906	1788
58.73	1888	1788
58.74	1856	1788
58.75	1839	1788
58.76	1825	1788
58.77	1806	1787
58.78	1840	1787
58.79	1851	1787
58.8	1829	1787
58.81	1864	1787
58.82	1874	1786
58.83	1845	1786
58.84	1818	1786
58.85	1828	1786
58.86	1860	1785
58.87	1892	1785
58.88	1901	1785
58.89	1894	1785
58.9	1863	1785
58.91	1873	1784
58.92	1899	1784
58.93	1912	1784
58.94	1929	1784
58.95	1970	1783
58.96	1926	1783
58.97	1928	1783
58.98	1953	1783
58.99	1933	1783
59.0	1905	1782
59.01	1956	1782
59.02	1975	1782
59.03	1969	1782
59.04	1969	1782
59.05	1939	1781
59.06	1996	1781
59.07	2005	1781
59.08	2018	1781
59.09	2063	1780
59.1	2090	1780
59.11	2145	1780
59.12	2166	1780
59.13	2174	1780
59.14	2180	1779
59.15	2149	1779
59.16	2131	1779
59.17	2147	1779
59.18	2200	1778
59.19	2241	1778
59.2	2289	1778
59.21	2363	1778
59.22	2424	1778
59.23	2536	1777
59.24	2588	1777
59.25	2650	1777
59.26	2819	1777
59.27	3054	1776
59.28	3245	1776
59.29	3488	1776
59.3	3758	1776
59.31	4157	1776
59.32	4566	1775
59.33	5086	1775
59.34	5696	1775
59.35	6274	1775
59.36	6797	1774
59.37	7262	1774
59.38	7579	1774
59.39	7626	1774
59.4	7414	1774
59.41	7004	1773
59.42	6405	1773
59.43	5845	1773
59.44	5190	1773
59.45	4707	1772
59.46	4447	1772
59.47	4230	1772
59.48	4141	1772
59.49	4239	1772
59.5	4344	1771
59.51	4465	1771
59.52	4646	1771
59.53	4749	1771
59.54	4770	1770
59.55	4811	1770
59.56	4760	1770
59.57	4561	1770
59.58	4277	1769
59.59	3935	1769
59.6	3553	1769
59.61	3205	1769
59.62	2928	1769
59.63	2756	1768
59.64	2600	1768
59.65	2432	1768
59.66	2299	1768
59.67	2275	1767
59.68	2177	1767
59.69	2114	1767
59.7	2073	1767
59.71	2079	1767
59.72	2108	1766
59.73	2062	1766
59.74	2043	1766
59.75	2046	1766
59.76	2013	1765
59.77	2017	1765
59.78	1981	1765
59.79	1963	1765
59.8	1949	1765
59.81	1911	1764
59.82	1904	1764
59.83	1906	1764
59.84	1915	1764
59.85	1861	1763
59.86	1883	1763
59.87	1890	1763
59.88	1904	1763
59.89	1881	1762
59.9	1846	1762
59.91	1844	1762
59.92	1831	1762
59.93	1848	1762
59.94	1880	1761
59.95	1860	1761
59.96	1858	1761
59.97	1850	1761
59.98	1856	1760
59.99	1890	1760
60.0	1825	1760
60.01	1809	1760
60.02	1833	1759
60.03	1841	1759
60.04	1783	1759
60.05	1760	1759
60.06	1817	1759
60.07	1862	1758
60.08	1819	1758
60.09	1785	1758
60.1	1807	1758
60.11	1776	1757
60.12	1789	1757
60.13	1829	1757
60.14	1795	1757
60.15	1796	1757
60.16	1766	1756
60.17	1809	1756
60.18	1811	1756
60.19	1804	1756
60.2	1798	1755
60.21	1829	1755
60.22	1784	1755
60.23	1772	1755
60.24	1783	1754
60.25	1796	1754
60.26	1785	1754
60.27	1782	1754
60.28	1781	1754
60.29	1818	1753
60.3	1824	1753
60.31	1763	1753
60.32	1774	1753
60.33	1781	1752
60.34	1806	1752
60.35	1783	1752
60.36	1784	1752
60.37	1752	1751
60.38	1759	1751
60.39	1791	1751
60.4	1759	1751
60.41	1753	1751
60.42	1767	1750
60.43	1807	1750
60.44	1783	1750
60.45	1771	1750
60.46	1802	1749
60.47	1821	1749
60.48	1808	1749
60.49	1784	1749
60.5	1783	1748
60.51	1804	1748
60.52	1784	1748
60.53	1788	1748
60.54	1794	1748
60.55	1766	1747
60.56	1773	1747
60.57	1817	1747
60.58	1793	1747
60.59	1806	1746
60.6	1761	1746
60.61	1769	1746
60.62	1771	1746
60.63	1778	1745
60.64	1837	1745
60.65	1841	1745
60.66	1800	1745
60.67	1776	1745
60.68	1744	1744
60.69	1726	1744
60.7	1726	1744
60.71	1763	1744
60.72	1764	1743
60.73	1760	1743
60.74	1761	1743
60.75	1757	1743
60.76	1761	1743
60.77	1796	1742
60.78	1820	1742
60.79	1831	1742
60.8	1813	1742
60.81	1776	1741
60.82	1774	1741
60.83	1747	1741
60.84	1741	1741
60.85	1751	1740
60.86	1760	1740
60.87	1758	1740
60.88	1779	1740
60.89	1798	1740
60.9	1822	1739
60.91	1801	1739
60.92	1812	1739
60.93	1798	1739
60.94	1789	1738
60.95	1755	1738
60.96	1739	1738
60.97	1770	1738
60.98	1765	1737
60.99	1778	1737
61.0	1781	1737
61.01	1752	1737
61.02	1739	1737
61.03	1816	1736
61.04	1825	1736
61.05	1809	1736
61.06	1794	1736
61.07	1765	1735
61.08	1789	1735
61.09	1855	1735
61.1	1835	1735
61.11	1818	1734
61.12	1791	1734
61.13	1765	1734
61.14	1765	1734
61.15	1761	1734
61.16	1789	1733
61.17	1777	1733
61.18	1775	1733
61.19	1768	1733
61.2	1744	1732
61.21	1770	1732
61.22	1804	1732
61.23	1760	1732
61.24	1745	1732
61.25	1731	1731
61.26	1748	1731
61.27	1800	1731
61.28	1726	1731
61.29	1708	1730
61.3	1732	1730
61.31	1735	1730
61.32	1747	1730
61.33	1781	1729
61.34	1780	1729
61.35	1781	1729
61.36	1802	1729
61.37	1759	1729
61.38	1753	1728
61.39	1775	1728
61.4	1800	1728
61.41	1735	1728
61.42	1756	1727
61.43	1777	1727
61.44	1782	1727
61.45	1731	1727
61.46	1732	1727
61.47	1750	1726
61.48	1747	1726
61.49	1818	1726
61.5	1787	1726
61.51	1756	1725
61.52	1790	1725
61.53	1789	1725
61.54	1790	1725
61.55	1748	1725
61.56	1759	1724
61.57	1735	1724
61.58	1779	1724
61.59	1783	1724
61.6	1779	1723
61.61	1719	1723
61.62	1698	1723
61.63	1754	1723
61.64	1768	1723
61.65	1770	1722
61.66	1770	1722
61.67	1764	1722
61.68	1750	1722
61.69	1772	1721
61.7	1807	1721
61.71	1760	1721
61.72	1765	1721
61.73	1763	1721
61.74	1770	1720
61.75	1741	1720
61.76	1740	1720
61.77	1780	1720
61.78	1753	1719
61.79	1726	1719
61.8	1750	1719
61.81	1752	1719
61.82	1742	1719
61.83	1750	1718
61.84	1795	1718
61.85	1760	1718
61.86	1709	1718
61.87	1736	1717
61.88	1793	1717
61.89	1793	1717
61.9	1748	1717
61.91	1761	1717
61.92	1734	1716
61.93	1720	1716
61.94	1770	1716
61.95	1789	1716
61.96	1774	1715
61.97	1737	1715
61.98	1730	1715
61.99	1693	1715
62.0	1744	1715
62.01	1786	1714
62.02	1809	1714
62.03	1790	1714
62.04	1785	1714
62.05	1722	1713
62.06	1727	1713
62.07	1767	1713
62.08	1773	1713
62.09	1730	1713
62.1	1714	1712
62.11	1702	1712
62.12	1707	1712
62.13	1732	1712
62.14	1773	1711
62.15	1749	1711
62.16	1731	1711
62.17	1764	1711
62.18	1740	1711
62.19	1717	1710
62.2	1720	1710
62.21	1765	1710
62.22	1729	1710
62.23	1722	1710
62.24	1713	1709
62.25	1691	1709
62.26	1738	1709
62.27	1752	1709
62.28	1794	1708
62.29	1775	1708
62.3	1727	1708
62.31	1768	1708
62.32	1768	1708
62.33	1735	1707
62.34	1754	1707
62.35	1734	1707
62.36	1729	1707
62.37	1693	1707
62.38	1732	1706
62.39	1719	1706
62.4	1728	1706
62.41	1719	1706
62.42	1721	1705
62.43	1706	1705
62.44	1713	1705
62.45	1671	1705
62.46	1695	1705
62.47	1775	1704
62.48	1765	1704
62.49	1711	1704
62.5	1684	1704
62.51	1722	1704
62.52	1807	1703
62.53	1741	1703
62.54	1718	1703
62.55	1745	1703
62.56	1759	1703
62.57	1742	1702
62.58	1709	1702
62.59	1730	1702
62.6	1760	1702
62.61	1768	1702
62.62	1809	1701
62.63	1760	1701
62.64	1721	1701
62.65	1736	1701
62.66	1693	1700
62.67	1720	1700
62.68	1751	1700
62.69	1715	1700
62.7	1652	1700
62.71	1672	1699
62.72	1728	1699
62.73	1709	1699
62.74	1706	1699
62.75	1716	1699
62.76	1761	1698
62.77	1765	1698
62.78	1711	1698
62.79	1748	1698
62.8	1766	1698
62.81	1742	1697
62.82	1748	1697
62.83	1733	1697
62.84	1703	1697
62.85	1757	1697
62.86	1801	1696
62.87	1792	1696
62.88	1764	1696
62.89	1769	1696
62.9	1745	1696
62.91	1770	1695
62.92	1825	1695
62.93	1736	1695
62.94	1700	1695
62.95	1710	1695
62.96	1756	1694
62.97	1742	1694
62.98	1751	1694
62.99	1704	1694
63.0	1701	1694
63.01	1712	1693
63.02	1683	1693
63.03	1682	1693
63.04	1692	1693
63.05	1745	1693
63.06	1731	1692
63.07	1734	1692
63.08	1747	1692
63.09	1716	1692
63.1	1745	1692
63.11	1722	1691
63.12	1747	1691
63.13	1729	1691
63.14	1735	1691
63.15	1764	1691
63.16	1735	1690
63.17	1742	1690
63.18	1704	1690
63.19	1733	1690
63.2	1725	1690
63.21	1703	1689
63.22	1709	1689
63.23	1711	1689
63.24	1744	1689
63.25	1761	1689
63.26	1750	1689
63.27	1744	1688
63.28	1742	1688
63.29	1746	1688
63.3	1725	1688
63.31	1710	1688
63.32	1680	1687
63.33	1702	1687
63.34	1750	1687
63.35	1731	1687
63.36	1720	1687
63.37	1716	1686
63.38	1702	1686
63.39	1703	1686
63.4	1714	1686
63.41	1716	1686
63.42	1674	1685
63.43	1680	1685
63.44	1740	1685
63.45	1720	1685
63.46	1690	1685
63.47	1706	1685
63.48	1702	1684
63.49	1727	1684
63.5	1787	1684
63.51	1745	1684
63.52	1718	1684
63.53	1723	1683
63.54	1699	1683
63.55	1672	1683
63.56	1698	1683
63.57	1726	1683
63.58	1751	1683
63.59	1774	1682
63.6	1732	1682
63.61	1705	1682
63.62	1698	1682
63.63	1690	1682
63.64	1674	1681
63.65	1723	1681
63.66	1701	1681
63.67	1694	1681
63.68	1753	1681
63.69	1733	1681
63.7	1721	1680
63.71	1728	1680
63.72	1688	1680
63.73	1745	1680
63.74	1762	1680
63.75	1769	1679
63.76	1717	1679
63.77	1776	1679
63.78	1697	1679
63.79	1735	1679
63.8	1747	1679
63.81	1703	1678
63.82	1678	1678
63.83	1716	1678
63.84	1755	1678
63.85	1720	1678
63.86	1715	1678
63.87	1691	1677
63.88	1722	1677
63.89	1729	1677
63.9	1743	1677
63.91	1736	1677
63.92	1731	1676
63.93	1740	1676
63.94	1764	1676
63.95	1698	1676
63.96	1709	1676
63.97	1696	1676
63.98	1635	1675
63.99	1662	1675
64.0	1738	1675
64.01	1698	1675
64.02	1714	1675
64.03	1713	1675
64.04	1733	1674
64.05	1689	1674
64.06	1692	1674
64.07	1717	1674
64.08	1753	1674
64.09	1721	1674
64.1	1699	1673
64.11	1729	1673
64.12	1736	1673
64.13	1732	1673
64.14	1727	1673
64.15	1719	1673
64.16	1701	1672
64.17	1696	1672
64.18	1706	1672
64.19	1775	1672
64.2	1771	1672
64.21	1775	1672
64.22	1673	1672
64.23	1687	1671
64.24	1759	1671
64.25	1765	1671
64.26	1714	1671
64.27	1733	1671
64.28	1703	1671
64.29	1715	1670
64.3	1740	1670
64.31	1722	1670
64.32	1642	1670
64.33	1684	1670
64.34	1765	1670
64.35	1743	1669
64.36	1727	1669
64.37	1722	1669
64.38	1717	1669
64.39	1653	1669
64.4	1703	1669
64.41	1686	1669
64.42	1726	1668
64.43	1760	1668
64.44	1779	1668
64.45	1759	1668
64.46	1785	1668
64.47	1733	1668
64.48	1719	1667
64.49	1717	1667
64.5	1759	1667
64.51	1722	1667
64.52	1680	1667
64.53	1750	1667
64.54	1773	1667
64.55	1742	1666
64.56	1718	1666
64.57	1748	1666
64.58	1806	1666
64.59	1793	1666
64.6	1730	1666
64.61	1758	1665
64.62	1774	1665
64.63	1808	1665
64.64	1744	1665
64.65	1703	1665
64.66	1740	1665
64.67	1796	1665
64.68	1808	1664
64.69	1772	1664
64.7	1858	1664
64.71	1860	1664
64.72	1856	1664
64.73	1832	1664
64.74	1861	1664
64.75	1945	1663
64.76	1972	1663
64.77	2020	1663
64.78	2058	1663
64.79	2155	1663
64.8	2317	1663
64.81	2391	1663
64.82	2437	1662
64.83	2467	1662
64.84	2572	1662
64.85	2557	1662
64.86	2571	1662
64.87	2573	1662
64.88	2511	1662
64.89	2374	1661
64.9	2305	1661
64.91	2258	1661
64.92	2221	1661
64.93	2119	1661
64.94	2091	1661
64.95	2090	1661
64.96	2087	1660
64.97	2120	1660
64.98	2141	1660
64.99	2139	1660
65.0	2118	1660
65.01	2141	1660
65.02	2152	1660
65.03	2166	1660
65.04	2138	1659
65.05	2141	1659
65.06	2104	1659
65.07	2054	1659
65.08	1990	1659
65.09	1932	1659
65.1	1855	1659
65.11	1867	1658
65.12	1850	1658
65.13	1838	1658
65.14	1790	1658
65.15	1768	1658
65.16	1804	1658
65.17	1804	1658
65.18	1789	1657
65.19	1816	1657
65.2	1827	1657
65.21	1732	1657
65.22	1717	1657
65.23	1728	1657
65.24	1726	1657
65.25	1770	1657
65.26	1747	1656
65.27	1723	1656
65.28	1754	1656
65.29	1760	1656
65.3	1707	1656
65.31	1684	1656
65.32	1712	1656
65.33	1735	1656
65.34	1779	1655
65.35	1758	1655
65.36	1697	1655
65.37	1747	1655
65.38	1717	1655
65.39	1740	1655
65.4	1730	1655
65.41	1699	1655
65.42	1747	1654
65.43	1679	1654
65.44	1740	1654
65.45	1730	1654
65.46	1732	1654
65.47	1768	1654
65.48	1744	1654
65.49	1697	1654
65.5	1674	1653
65.51	1681	1653
65.52	1734	1653
65.53	1731	1653
65.54	1696	1653
65.55	1705	1653
65.56	1698	1653
65.57	1694	1653
65.58	1710	1652
65.59	1695	1652
65.6	1743	1652
65.61	1756	1652
65.62	1707	1652
65.63	1676	1652
65.64	1709	1652
65.65	1660	1652
65.66	1695	1651
65.67	1690	1651
65.68	1694	1651
65.69	1648	1651
65.7	1701	1651
65.71	1681	1651
65.72	1711	1651
65.73	1682	1651
65.74	1674	1650
65.75	1686	1650
65.76	1699	1650
65.77	1658	1650
65.78	1638	1650
65.79	1685	1650
65.8	1673	1650
65.81	1682	1650
65.82	1702	1650
65.83	1706	1649
65.84	1701	1649
65.85	1694	1649
65.86	1713	1649
65.87	1704	1649
65.88	1677	1649
65.89	1708	1649
65.9	1694	1649
65.91	1672	1649
65.92	1677	1648
65.93	1689	1648
65.94	1695	1648
65.95	1701	1648
65.96	1738	1648
65.97	1692	1648
65.98	1714	1648
65.99	1696	1648
66.0	1670	1647
66.01	1676	1647
66.02	1659	1647
66.03	1669	1647
66.04	1701	1647
66.05	1751	1647
66.06	1624	1647
66.07	1670	1647
66.08	1709	1647
66.09	1662	1646
66.1	1680	1646
66.11	1757	1646
66.12	1748	1646
66.13	1705	1646
66.14	1625	1646
66.15	1662	1646
66.16	1728	1646
66.17	1684	1646
66.18	1733	1645
66.19	1752	1645
66.2	1739	1645
66.21	1718	1645
66.22	1747	1645
66.23	1717	1645
66.24	1770	1645
66.25	1714	1645
66.26	1691	1645
66.27	1659	1645
66.28	1671	1644
66.29	1710	1644
66.3	1701	1644
66.31	1699	1644
66.32	1737	1644
66.33	1718	1644
66.34	1749	1644
66.35	1678	1644
66.36	1673	1644
66.37	1654	1643
66.38	1647	1643
66.39	1654	1643
66.4	1682	1643
66.41	1678	1643
66.42	1691	1643
66.43	1691	1643
66.44	1681	1643
66.45	1643	1643
66.46	1706	1643
66.47	1707	1642
66.48	1661	1642
66.49	1716	1642
66.5	1739	1642
66.51	1668	1642
66.52	1684	1642
66.53	1668	1642
66.54	1710	1642
66.55	1696	1642
66.56	1683	1641
66.57	1690	1641
66.58	1708	1641
66.59	1712	1641
66.6	1711	1641
66.61	1731	1641
66.62	1728	1641
66.63	1723	1641
66.64	1737	1641
66.65	1716	1641
66.66	1748	1640
66.67	1713	1640
66.68	1741	1640
66.69	1705	1640
66.7	1720	1640
66.71	1730	1640
66.72	1680	1640
66.73	1687	1640
66.74	1722	1640
66.75	1749	1640
66.76	1743	1639
66.77	1747	1639
66.78	1705	1639
66.79	1781	1639
66.8	1810	1639
66.81	1796	1639
66.82	1780	1639
66.83	1714	1639
66.84	1731	1639
66.85	1727	1639
66.86	1701	1639
66.87	1799	1638
66.88	1815	1638
66.89	1809	1638
66.9	1804	1638
66.91	1848	1638
66.92	1768	1638
66.93	1822	1638
66.94	1794	1638
66.95	1796	1638
66.96	1805	1638
66.97	1858	1637
66.98	1880	1637
66.99	1838	1637
67.0	1859	1637
67.01	1882	1637
67.02	1928	1637
67.03	1922	1637
67.04	1899	1637
67.05	1880	1637
67.06	1913	1637
67.07	1909	1637
67.08	1947	1636
67.09	1958	1636
67.1	1976	1636
67.11	2077	1636
67.12	2093	1636
67.13	2144	1636
67.14	2180	1636
67.15	2302	1636
67.16	2335	1636
67.17	2387	1636
67.18	2470	1635
67.19	2564	1635
67.2	2697	1635
67.21	2759	1635
67.22	2863	1635
67.23	2969	1635
67.24	3007	1635
67.25	2930	1635
67.26	2978	1635
67.27	2987	1635
67.28	2954	1635
67.29	2883	1634
67.3	2830	1634
67.31	2736	1634
67.32	2636	1634
67.33	2552	1634
67.34	2587	1634
67.35	2513	1634
67.36	2450	1634
67.37	2457	1634
67.38	2428	1634
67.39	2397	1634
67.4	2442	1633
67.41	2482	1633
67.42	2424	1633
67.43	2427	1633
67.44	2433	1633
67.45	2398	1633
67.46	2383	1633
67.47	2358	1633
67.48	2331	1633
67.49	2322	1633
67.5	2275	1633
67.51	2189	1633
67.52	2081	1632
67.53	2041	1632
67.54	2029	1632
67.55	1961	1632
67.56	1934	1632
67.57	1873	1632
67.58	1881	1632
67.59	1947	1632
67.6	1907	1632
67.61	1858	1632
67.62	1855	1632
67.63	1819	1631
67.64	1794	1631
67.65	1817	1631
67.66	1789	1631
67.67	1778	1631
67.68	1780	1631
67.69	1779	1631
67.7	1724	1631
67.71	1712	1631
67.72	1768	1631
67.73	1815	1631
67.74	1783	1630
67.75	1781	1630
67.76	1700	1630
67.77	1711	1630
67.78	1702	1630
67.79	1714	1630
67.8	1745	1630
67.81	1762	1630
67.82	1653	1630
67.83	1633	1630
67.84	1705	1630
67.85	1727	1630
67.86	1713	1629
67.87	1723	1629
67.88	1681	1629
67.89	1701	1629
67.9	1732	1629
67.91	1706	1629
67.92	1717	1629
67.93	1690	1629
67.94	1665	1629
67.95	1725	1629
67.96	1728	1629
67.97	1702	1629
67.98	1716	1628
67.99	1718	1628
68.0	1724	1628
68.01	1670	1628
68.02	1734	1628
68.03	1711	1628
68.04	1674	1628
68.05	1657	1628
68.06	1696	1628
68.07	1685	1628
68.08	1733	1628
68.09	1746	1628
68.1	1690	1627
68.11	1682	1627
68.12	1752	1627
68.13	1736	1627
68.14	1717	1627
68.15	1723	1627
68.16	1683	1627
68.17	1639	1627
68.18	1674	1627
68.19	1665	1627
68.2	1657	1627
68.21	1648	1627
68.22	1656	1626
68.23	1700	1626
68.24	1692	1626
68.25	1686	1626
68.26	1670	1626
68.27	1666	1626
68.28	1666	1626
68.29	1683	1626
68.3	1660	1626
68.31	1637	1626
68.32	1673	1626
68.33	1675	1626
68.34	1681	1625
68.35	1655	1625
68.36	1677	1625
68.37	1659	1625
68.38	1680	1625
68.39	1653	1625
68.4	1632	1625
68.41	1627	1625
68.42	1710	1625
68.43	1715	1625
68.44	1679	1625
68.45	1675	1625
68.46	1678	1624
68.47	1726	1624
68.48	1692	1624
68.49	1702	1624
68.5	1688	1624
68.51	1683	1624
68.52	1763	1624
68.53	1790	1624
68.54	1716	1624
68.55	1764	1624
68.56	1776	1624
68.57	1750	1624
68.58	1720	1623
68.59	1713	1623
68.6	1755	1623
68.61	1677	1623
68.62	1745	1623
68.63	1693	1623
68.64	1687	1623
68.65	1693	1623
68.66	1731	1623
68.67	1758	1623
68.68	1683	1623
68.69	1620	1623
68.7	1710	1623
68.71	1744	1622
68.72	1725	1622
68.73	1705	1622
68.74	1680	1622
68.75	1741	1622
68.76	1726	1622
68.77	1665	1622
68.78	1677	1622
68.79	1737	1622
68.8	1701	1622
68.81	1715	1622
68.82	1711	1622
68.83	1672	1621
68.84	1650	1621
68.85	1642	1621
68.86	1672	1621
68.87	1708	1621
68.88	1700	1621
68.89	1674	1621
68.9	1647	1621
68.91	1696	1621
68.92	1658	1621
68.93	1586	1621
68.94	1594	1621
68.95	1632	1621
68.96	1664	1620
68.97	1684	1620
68.98	1706	1620
68.99	1662	1620
69.0	1683	1620
69.01	1681	1620
69.02	1699	1620
69.03	1687	1620
69.04	1678	1620
69.05	1676	1620
69.06	1705	1620
69.07	1652	1620
69.08	1641	1619
69.09	1688	1619
69.1	1679	1619
69.11	1663	1619
69.12	1654	1619
69.13	1634	1619
69.14	1655	1619
69.15	1652	1619
69.16	1653	1619
69.17	1677	1619
69.18	1667	1619
69.19	1671	1619
69.2	1640	1619
69.21	1618	1618
69.22	1616	1618
69.23	1615	1618
69.24	1642	1618
69.25	1674	1618
69.26	1670	1618
69.27	1609	1618
69.28	1603	1618
69.29	1626	1618
69.3	1662	1618
69.31	1676	1618
69.32	1666	1618
69.33	1630	1617
69.34	1650	1617
69.35	1661	1617
69.36	1666	1617
69.37	1664	1617
69.38	1650	1617
69.39	1632	1617
69.4	1609	1617
69.41	1667	1617
69.42	1711	1617
69.43	1635	1617
69.44	1641	1617
69.45	1613	1617
69.46	1653	1616
69.47	1656	1616
69.48	1651	1616
69.49	1649	1616
69.5	1610	1616
69.51	1665	1616
69.52	1654	1616
69.53	1656	1616
69.54	1688	1616
69.55	1704	1616
69.56	1665	1616
69.57	1659	1616
69.58	1656	1615
69.59	1675	1615
69.6	1729	1615
69.61	1701	1615
69.62	1648	1615
69.63	1646	1615
69.64	1607	1615
69.65	1644	1615
69.66	1711	1615
69.67	1675	1615
69.68	1663	1615
69.69	1638	1615
69.7	1680	1615
69.71	1691	1614
69.72	1684	1614
69.73	1664	1614
69.74	1684	1614
69.75	1655	1614
69.76	1678	1614
69.77	1662	1614
69.78	1651	1614
69.79	1643	1614
69.8	1674	1614
69.81	1727	1614
69.82	1709	1614
69.83	1693	1613
69.84	1653	1613
69.85	1613	1613
69.86	1685	1613
69.87	1615	1613
69.88	1599	1613
69.89	1666	1613
69.9	1624	1613
69.91	1692	1613
69.92	1671	1613
69.93	1622	1613
69.94	1653	1613
69.95	1639	1612
69.96	1597	1612
69.97	1628	1612
69.98	1650	1612
69.99	1626	1612
70.0	1645	1612
70.01	1697	1612
70.02	1664	1612
70.03	1642	1612
70.04	1669	1612
70.05	1645	1612
70.06	1689	1612
70.07	1742	1612
70.08	1705	1611
70.09	1645	1611
70.1	1624	1611
70.11	1676	1611
70.12	1693	1611
70.13	1701	1611
70.14	1680	1611
70.15	1663	1611
70.16	1644	1611
70.17	1678	1611
70.18	1676	1611
70.19	1654	1611
70.2	1647	1610
70.21	1679	1610
70.22	1697	1610
70.23	1700	1610
70.24	1689	1610
70.25	1681	1610
70.26	1705	1610
70.27	1681	1610
70.28	1648	1610
70.29	1626	1610
70.3	1630	1610
70.31	1683	1610
70.32	1678	1610
70.33	1639	1609
70.34	1630	1609
70.35	1606	1609
70.36	1668	1609
70.37	1654	1609
70.38	1720	1609
70.39	1697	1609
70.4	1669	1609
70.41	1673	1609
70.42	1669	1609
70.43	1675	1609
70.44	1646	1609
70.45	1684	1608
70.46	1675	1608
70.47	1626	1608
70.48	1662	1608
70.49	1694	1608
70.5	1703	1608
70.51	1688	1608
70.52	1674	1608
70.53	1652	1608
70.54	1614	1608
70.55	1649	1608
70.56	1635	1608
70.57	1632	1607
70.58	1618	1607
70.59	1598	1607
70.6	1591	1607
70.61	1624	1607
70.62	1636	1607
70.63	1643	1607
70.64	1672	1607
70.65	1673	1607
70.66	1652	1607
70.67	1675	1607
70.68	1661	1607
70.69	1621	1607
70.7	1690	1606
70.71	1658	1606
70.72	1640	1606
70.73	1707	1606
70.74	1673	1606
70.75	1720	1606
70.76	1723	1606
70.77	1712	1606
70.78	1656	1606
70.79	1623	1606
70.8	1646	1606
70.81	1683	1606
70.82	1644	1605
70.83	1639	1605
70.84	1657	1605
70.85	1676	1605
70.86	1663	1605
70.87	1664	1605
70.88	1633	1605
70.89	1618	1605
70.9	1661	1605
70.91	1667	1605
70.92	1667	1605
70.93	1661	1605
70.94	1638	1604
70.95	1616	1604
70.96	1595	1604
70.97	1690	1604
70.98	1642	1604
70.99	1633	1604
71.0	1672	1604
71.01	1628	1604
71.02	1623	1604
71.03	1655	1604
71.04	1653	1604
71.05	1665	1604
71.06	1712	1603
71.07	1701	1603
71.08	1670	1603
71.09	1634	1603
71.1	1639	1603
71.11	1643	1603
71.12	1613	1603
71.13	1610	1603
71.14	1651	1603
71.15	1639	1603
71.16	1608	1603
71.17	1670	1603
71.18	1680	1602
71.19	1614	1602
71.2	1636	1602
71.21	1677	1602
71.22	1688	1602
71.23	1638	1602
71.24	1650	1602
71.25	1703	1602
71.26	1631	1602
71.27	1621	1602
71.28	1661	1602
71.29	1676	1602
71.3	1722	1601
71.31	1661	1601
71.32	1657	1601
71.33	1703	1601
71.34	1734	1601
71.35	1718	1601
71.36	1655	1601
71.37	1681	1601
71.38	1702	1601
71.39	1656	1601
71.4	1655	1601
71.41	1637	1601
71.42	1649	1600
71.43	1671	1600
71.44	1700	1600
71.45	1665	1600
71.46	1637	1600
71.47	1688	1600
71.48	1702	1600
71.49	1705	1600
71.5	1687	1600
71.51	1703	1600
71.52	1699	1600
71.53	1664	1600
71.54	1682	1599
71.55	1677	1599
71.56	1615	1599
71.57	1674	1599
71.58	1643	1599
71.59	1613	1599
71.6	1716	1599
71.61	1712	1599
71.62	1699	1599
71.63	1704	1599
71.64	1702	1599
71.65	1670	1599
71.66	1693	1598
71.67	1737	1598
71.68	1749	1598
71.69	1749	1598
71.7	1759	1598
71.71	1768	1598
71.72	1724	1598
71.73	1740	1598
71.74	1756	1598
71.75	1735	1598
71.76	1726	1598
71.77	1710	1598
71.78	1707	1597
71.79	1767	1597
71.8	1767	1597
71.81	1722	1597
71.82	1758	1597
71.83	1825	1597
71.84	1825	1597
71.85	1784	1597
71.86	1791	1597
71.87	1771	1597
71.88	1855	1597
71.89	1851	1596
71.9	1870	1596
71.91	1873	1596
71.92	1850	1596
71.93	1858	1596
71.94	1881	1596
71.95	1917	1596
71.96	1887	1596
71.97	1861	1596
71.98	1905	1596
71.99	1922	1596
72.0	1946	1596
72.01	1985	1595
72.02	1983	1595
72.03	1956	1595
72.04	2045	1595
72.05	2065	1595
72.06	2093	1595
72.07	2147	1595
72.08	2157	1595
72.09	2173	1595
72.1	2226	1595
72.11	2217	1595
72.12	2254	1595
72.13	2366	1594
72.14	2410	1594
72.15	2518	1594
72.16	2556	1594
72.17	2629	1594
72.18	2788	1594
72.19	2909	1594
72.2	2963	1594
72.21	3114	1594
72.22	3248	1594
72.23	3455	1594
72.24	3624	1593
72.25	3803	1593
72.26	3920	1593
72.27	3994	1593
72.28	4109	1593
72.29	4144	1593
72.3	4125	1593
72.31	4135	1593
72.32	4133	1593
72.33	4107	1593
72.34	4008	1593
72.35	3988	1593
72.36	4048	1592
72.37	4045	1592
72.38	4000	1592
72.39	4099	1592
72.4	4198	1592
72.41	4109	1592
72.42	4065	1592
72.43	3997	1592
72.44	3889	1592
72.45	3705	1592
72.46	3690	1592
72.47	3669	1591
72.48	3538	1591
72.49	3408	1591
72.5	3295	1591
72.51	3243	1591
72.52	3236	1591
72.53	3152	1591
72.54	3080	1591
72.55	3084	1591
72.56	2989	1591
72.57	2930	1591
72.58	2898	1590
72.59	2908	1590
72.6	2856	1590
72.61	2857	1590
72.62	2712	1590
72.63	2662	1590
72.64	2626	1590
72.65	2446	1590
72.66	2374	1590
72.67	2309	1590
72.68	2190	1590
72.69	2161	1589
72.7	2045	1589
72.71	2024	1589
72.72	2031	1589
72.73	2012	1589
72.74	1989	1589
72.75	1928	1589
72.76	1935	1589
72.77	1955	1589
72.78	1932	1589
72.79	1919	1589
72.8	1901	1589
72.81	1870	1588
72.82	1856	1588
72.83	1829	1588
72.84	1822	1588
72.85	1821	1588
72.86	1774	1588
72.87	1708	1588
72.88	1734	1588
72.89	1792	1588
72.9	1757	1588
72.91	1750	1588
72.92	1740	1587
72.93	1735	1587
72.94	1731	1587
72.95	1731	1587
72.96	1724	1587
72.97	1725	1587
72.98	1724	1587
72.99	1719	1587
73.0	1725	1587
73.01	1755	1587
73.02	1773	1586
73.03	1796	1586
73.04	1687	1586
73.05	1659	1586
73.06	1707	1586
73.07	1690	1586
73.08	1685	1586
73.09	1692	1586
73.1	1714	1586
73.11	1732	1586
73.12	1742	1586
73.13	1731	1585
73.14	1720	1585
73.15	1693	1585
73.16	1682	1585
73.17	1677	1585
73.18	1684	1585
73.19	1705	1585
73.2	1715	1585
73.21	1699	1585
73.22	1658	1585
73.23	1698	1585
73.24	1731	1584
73.25	1693	1584
73.26	1722	1584
73.27	1703	1584
73.28	1681	1584
73.29	1673	1584
73.3	1666	1584
73.31	1616	1584
73.32	1679	1584
73.33	1698	1584
73.34	1675	1584
73.35	1674	1583
73.36	1644	1583
73.37	1650	1583
73.38	1649	1583
73.39	1634	1583
73.4	1600	1583
73.41	1640	1583
73.42	1733	1583
73.43	1687	1583
73.44	1676	1583
73.45	1680	1582
73.46	1672	1582
73.47	1665	1582
73.48	1677	1582
73.49	1627	1582
73.5	1594	1582
73.51	1575	1582
73.52	1579	1582
73.53	1613	1582
73.54	1667	1582
73.55	1682	1582
73.56	1675	1581
73.57	1661	1581
73.58	1660	1581
73.59	1631	1581
73.6	1634	1581
73.61	1662	1581
73.62	1670	1581
73.63	1616	1581
73.64	1644	1581
73.65	1647	1581
73.66	1625	1580
73.67	1625	1580
73.68	1632	1580
73.69	1599	1580
73.7	1627	1580
73.71	1674	1580
73.72	1635	1580
73.73	1621	1580
73.74	1611	1580
73.75	1602	1580
73.76	1653	1580
73.77	1706	1579
73.78	1604	1579
73.79	1594	1579
73.8	1663	1579
73.81	1653	1579
73.82	1627	1579
73.83	1627	1579
73.84	1587	1579
73.85	1603	1579
73.86	1563	1579
73.87	1612	1578
73.88	1587	1578
73.89	1575	1578
73.9	1660	1578
73.91	1643	1578
73.92	1647	1578
73.93	1618	1578
73.94	1615	1578
73.95	1655	1578
73.96	1661	1578
73.97	1591	1577
73.98	1596	1577
73.99	1671	1577
74.0	1623	1577
74.01	1625	1577
74.02	1659	1577
74.03	1657	1577
74.04	1624	1577
74.05	1575	1577
74.06	1582	1577
74.07	1588	1576
74.08	1632	1576
74.09	1648	1576
74.1	1619	1576
74.11	1588	1576
74.12	1601	1576
74.13	1647	1576
74.14	1600	1576
74.15	1590	1576
74.16	1604	1576
74.17	1670	1575
74.18	1676	1575
74.19	1628	1575
74.2	1607	1575
74.21	1589	1575
74.22	1577	1575
74.23	1572	1575
74.24	1604	1575
74.25	1593	1575
74.26	1625	1575
74.27	1604	1574
74.28	1650	1574
74.29	1658	1574
74.3	1619	1574
74.31	1576	1574
74.32	1590	1574
74.33	1618	1574
74.34	1622	1574
74.35	1612	1574
74.36	1574	1574
74.37	1607	1573
74.38	1615	1573
74.39	1582	1573
74.4	1598	1573
74.41	1603	1573
74.42	1563	1573
74.43	1613	1573
74.44	1609	1573
74.45	1614	1573
74.46	1578	1573
74.47	1598	1572
74.48	1618	1572
74.49	1628	1572
74.5	1644	1572
74.51	1572	1572
74.52	1631	1572
74.53	1618	1572
74.54	1617	1572
74.55	1646	1572
74.56	1585	1571
74.57	1636	1571
74.58	1624	1571
74.59	1630	1571
74.6	1579	1571
74.61	1551	1571
74.62	1595	1571
74.63	1604	1571
74.64	1598	1571
74.65	1557	1571
74.66	1604	1570
74.67	1651	1570
74.68	1623	1570
74.69	1575	1570
74.7	1555	1570
74.71	1613	1570
74.72	1642	1570
74.73	1611	1570
74.74	1606	1570
74.75	1600	1570
74.76	1621	1569
74.77	1596	1569
74.78	1618	1569
74.79	1586	1569
74.8	1600	1569
74.81	1593	1569
74.82	1622	1569
74.83	1642	1569
74.84	1623	1569
74.85	1642	1568
74.86	1639	1568
74.87	1626	1568
74.88	1579	1568
74.89	1598	1568
74.9	1621	1568
74.91	1582	1568
74.92	1585	1568
74.93	1576	1568
74.94	1570	1567
74.95	1612	1567
74.96	1592	1567
74.97	1550	1567
74.98	1545	1567
74.99	1563	1567
75.0	1575	1567
75.01	1605	1567
75.02	1581	1567
75.03	1608	1567
75.04	1609	1566
75.05	1595	1566
75.06	1554	1566
75.07	1573	1566
75.08	1591	1566
75.09	1569	1566
75.1	1580	1566
75.11	1650	1566
75.12	1676	1566
75.13	1658	1565
75.14	1641	1565
75.15	1550	1565
75.16	1618	1565
75.17	1605	1565
75.18	1622	1565
75.19	1608	1565
75.2	1647	1565
75.21	1628	1565
75.22	1598	1564
75.23	1608	1564
75.24	1624	1564
75.25	1633	1564
75.26	1615	1564
75.27	1600	1564
75.28	1604	1564
75.29	1621	1564
75.3	1645	1564
75.31	1621	1563
75.32	1628	1563
75.33	1614	1563
75.34	1631	1563
75.35	1628	1563
75.36	1599	1563
75.37	1626	1563
75.38	1613	1563
75.39	1610	1563
75.4	1639	1562
75.41	1621	1562
75.42	1636	1562
75.43	1637	1562
75.44	1595	1562
75.45	1531	1562
75.46	1544	1562
75.47	1565	1562
75.48	1601	1562
75.49	1594	1561
75.5	1571	1561
75.51	1564	1561
75.52	1597	1561
75.53	1601	1561
75.54	1584	1561
75.55	1576	1561
75.56	1588	1561
75.57	1588	1561
75.58	1571	1560
75.59	1573	1560
75.6	1612	1560
75.61	1632	1560
75.62	1577	1560
75.63	1555	1560
75.64	1571	1560
75.65	1581	1560
75.66	1588	1559
75.67	1620	1559
75.68	1596	1559
75.69	1591	1559
75.7	1602	1559
75.71	1587	1559
75.72	1573	1559
75.73	1593	1559
75.74	1624	1559
75.75	1666	1558
75.76	1640	1558
75.77	1649	1558
75.78	1619	1558
75.79	1613	1558
75.8	1672	1558
75.81	1661	1558
75.82	1604	1558
75.83	1617	1558
75.84	1681	1557
75.85	1630	1557
75.86	1589	1557
75.87	1639	1557
75.88	1729	1557
75.89	1688	1557
75.9	1674	1557
75.91	1708	1557
75.92	1701	1556
75.93	1684	1556
75.94	1693	1556
75.95	1712	1556
75.96	1715	1556
75.97	1716	1556
75.98	1674	1556
75.99	1676	1556
76.0	1682	1556
76.01	1643	1555
76.02	1646	1555
76.03	1679	1555
76.04	1674	1555
76.05	1639	1555
76.06	1637	1555
76.07	1583	1555
76.08	1559	1555
76.09	1616	1554
76.1	1656	1554
76.11	1661	1554
76.12	1677	1554
76.13	1701	1554
76.14	1686	1554
76.15	1665	1554
76.16	1653	1554
76.17	1657	1554
76.18	1660	1553
76.19	1676	1553
76.2	1643	1553
76.21	1629	1553
76.22	1632	1553
76.23	1644	1553
76.24	1636	1553
76.25	1639	1553
76.26	1597	1552
76.27	1612	1552
76.28	1608	1552
76.29	1642	1552
76.3	1625	1552
76.31	1599	1552
76.32	1609	1552
76.33	1651	1552
76.34	1655	1551
76.35	1634	1551
76.36	1615	1551
76.37	1590	1551
76.38	1601	1551
76.39	1589	1551
76.4	1575	1551
76.41	1627	1551
76.42	1626	1551
76.43	1591	1550
76.44	1648	1550
76.45	1631	1550
76.46	1637	1550
76.47	1576	1550
76.48	1621	1550
76.49	1619	1550
76.5	1567	1550
76.51	1594	1549
76.52	1596	1549
76.53	1563	1549
76.54	1623	1549
76.55	1632	1549
76.56	1591	1549
76.57	1582	1549
76.58	1588	1549
76.59	1617	1548
76.6	1621	1548
76.61	1614	1548
76.62	1590	1548
76.63	1560	1548
76.64	1586	1548
76.65	1609	1548
76.66	1612	1548
76.67	1623	1547
76.68	1548	1547
76.69	1557	1547
76.7	1626	1547
76.71	1629	1547
76.72	1602	1547
76.73	1538	1547
76.74	1553	1547
76.75	1583	1546
76.76	1624	1546
76.77	1643	1546
76.78	1642	1546
76.79	1625	1546
76.8	1596	1546
76.81	1561	1546
76.82	1593	1546
76.83	1605	1545
76.84	1614	1545
76.85	1613	1545
76.86	1628	1545
76.87	1613	1545
76.88	1618	1545
76.89	1599	1545
76.9	1574	1545
76.91	1604	1544
76.92	1637	1544
76.93	1641	1544
76.94	1624	1544
76.95	1628	1544
76.96	1608	1544
76.97	1634	1544
76.98	1609	1544
76.99	1598	1543
77.0	1547	1543
77.01	1536	1543
77.02	1554	1543
77.03	1587	1543
77.04	1550	1543
77.05	1588	1543
77.06	1575	1543
77.07	1559	1542
77.08	1575	1542
77.09	1618	1542
77.1	1584	1542
77.11	1521	1542
77.12	1559	1542
77.13	1575	1542
77.14	1566	1542
77.15	1591	1541
77.16	1587	1541
77.17	1577	1541
77.18	1546	1541
77.19	1571	1541
77.2	1618	1541
77.21	1616	1541
77.22	1600	1541
77.23	1549	1540
77.24	1531	1540
77.25	1585	1540
77.26	1554	1540
77.27	1524	1540
77.28	1564	1540
77.29	1592	1540
77.3	1638	1540
77.31	1613	1539
77.32	1607	1539
77.33	1536	1539
77.34	1569	1539
77.35	1604	1539
77.36	1596	1539
77.37	1557	1539
77.38	1579	1539
77.39	1614	1538
77.4	1562	1538
77.41	1619	1538
77.42	1579	1538
77.43	1571	1538
77.44	1545	1538
77.45	1556	1538
77.46	1549	1538
77.47	1514	1537
77.48	1556	1537
77.49	1576	1537
77.5	1605	1537
77.51	1594	1537
77.52	1627	1537
77.53	1577	1537
77.54	1589	1537
77.55	1557	1536
77.56	1526	1536
77.57	1541	1536
77.58	1586	1536
77.59	1571	1536
77.6	1562	1536
77.61	1563	1536
77.62	1524	1536
77.63	1510	1535
77.64	1502	1535
77.65	1548	1535
77.66	1572	1535
77.67	1570	1535
77.68	1534	1535
77.69	1553	1535
77.7	1606	1535
77.71	1563	1534
77.72	1555	1534
77.73	1554	1534
77.74	1547	1534
77.75	1581	1534
77.76	1596	1534
77.77	1530	1534
77.78	1564	1534
77.79	1542	1533
77.8	1563	1533
77.81	1605	1533
77.82	1594	1533
77.83	1598	1533
77.84	1571	1533
77.85	1596	1533
77.86	1586	1533
77.87	1554	1532
77.88	1606	1532
77.89	1606	1532
77.9	1603	1532
77.91	1641	1532
77.92	1604	1532
77.93	1591	1532
77.94	1615	1532
77.95	1594	1531
77.96	1549	1531
77.97	1618	1531
77.98	1591	1531
77.99	1520	1531
78.0	1570	1531
78.01	1609	1531
78.02	1579	1530
78.03	1568	1530
78.04	1587	1530
78.05	1586	1530
78.06	1596	1530
78.07	1555	1530
78.08	1578	1530
78.09	1563	1530
78.1	1589	1529
78.11	1578	1529
78.12	1582	1529
78.13	1606	1529
78.14	1577	1529
78.15	1559	1529
78.16	1585	1529
78.17	1557	1529
78.18	1548	1528
78.19	1599	1528
78.2	1615	1528
78.21	1630	1528
78.22	1584	1528
78.23	1580	1528
78.24	1618	1528
78.25	1577	1528
78.26	1597	1527
78.27	1603	1527
78.28	1551	1527
78.29	1569	1527
78.3	1584	1527
78.31	1636	1527
78.32	1602	1527
78.33	1606	1527
78.34	1623	1526
78.35	1568	1526
78.36	1598	1526
78.37	1658	1526
78.38	1632	1526
78.39	1577	1526
78.4	1579	1526
78.41	1614	1526
78.42	1609	1525
78.43	1610	1525
78.44	1633	1525
78.45	1609	1525
78.46	1591	1525
78.47	1583	1525
78.48	1554	1525
78.49	1550	1525
78.5	1566	1524
78.51	1578	1524
78.52	1627	1524
78.53	1626	1524
78.54	1588	1524
78.55	1605	1524
78.56	1612	1524
78.57	1603	1523
78.58	1548	1523
78.59	1518	1523
78.6	1545	1523
78.61	1576	1523
78.62	1598	1523
78.63	1573	1523
78.64	1564	1523
78.65	1598	1522
78.66	1548	1522
78.67	1548	1522
78.68	1575	1522
78.69	1567	1522
78.7	1617	1522
78.71	1642	1522
78.72	1594	1522
78.73	1596	1521
78.74	1595	1521
78.75	1563	1521
78.76	1512	1521
78.77	1566	1521
78.78	1588	1521
78.79	1539	1521
78.8	1550	1521
78.81	1557	1520
78.82	1541	1520
78.83	1513	1520
78.84	1546	1520
78.85	1610	1520
78.86	1578	1520
78.87	1568	1520
78.88	1543	1520
78.89	1546	1519
78.9	1567	1519
78.91	1550	1519
78.92	1547	1519
78.93	1553	1519
78.94	1561	1519
78.95	1585	1519
78.96	1586	1519
78.97	1549	1518
78.98	1560	1518
78.99	1531	1518
79.0	1559	1518
79.01	1549	1518
79.02	1591	1518
79.03	1584	1518
79.04	1596	1518
79.05	1580	1517
79.06	1594	1517
79.07	1628	1517
79.08	1604	1517
79.09	1602	1517
79.1	1554	1517
79.11	1564	1517
79.12	1603	1517
79.13	1568	1516
79.14	1542	1516
79.15	1603	1516
79.16	1649	1516
79.17	1612	1516
79.18	1571	1516
79.19	1578	1516
79.2	1547	1516
79.21	1578	1515
79.22	1620	1515
79.23	1651	1515
79.24	1592	1515
79.25	1598	1515
79.26	1562	1515
79.27	1593	1515
79.28	1602	1515
79.29	1585	1514
79.3	1609	1514
79.31	1612	1514
79.32	1620	1514
79.33	1603	1514
79.34	1626	1514
79.35	1654	1514
79.36	1624	1514
79.37	1614	1513
79.38	1638	1513
79.39	1637	1513
79.4	1634	1513
79.41	1639	1513
79.42	1638	1513
79.43	1617	1513
79.44	1610	1513
79.45	1625	1512
79.46	1629	1512
79.47	1624	1512
79.48	1671	1512
79.49	1674	1512
79.5	1689	1512
79.51	1754	1512
79.52	1732	1512
79.53	1767	1511
79.54	1803	1511
79.55	1833	1511
79.56	1912	1511
79.57	1992	1511
79.58	2031	1511
79.59	2078	1511
79.6	2238	1511
79.61	2325	1510
79.62	2472	1510
79.63	2619	1510
79.64	2782	1510
79.65	2812	1510
79.66	2768	1510
79.67	2707	1510
79.68	2587	1510
79.69	2499	1509
79.7	2333	1509
79.71	2215	1509
79.72	2097	1509
79.73	1996	1509
79.74	1944	1509
79.75	1944	1509
79.76	1869	1509
79.77	1836	1509
79.78	1805	1508
79.79	1819	1508
79.8	1849	1508
79.81	1818	1508
79.82	1904	1508
79.83	1961	1508
79.84	1960	1508
79.85	2020	1508
79.86	2145	1507
79.87	2138	1507
79.88	2165	1507
79.89	2225	1507
79.9	2212	1507
79.91	2141	1507
79.92	2107	1507
79.93	2050	1507
79.94	1931	1506
79.95	1851	1506
79.96	1812	1506
79.97	1767	1506
79.98	1723	1506
79.99	1756	1506
80.0	1719	1506
80.01	1663	1506
80.02	1643	1505
80.03	1697	1505
80.04	1666	1505
80.05	1630	1505
80.06	1627	1505
80.07	1611	1505
80.08	1641	1505
80.09	1675	1505
80.1	1622	1505
80.11	1593	1504
80.12	1571	1504
80.13	1584	1504
80.14	1575	1504
80.15	1628	1504
80.16	1622	1504
80.17	1568	1504
80.18	1543	1504
80.19	1546	1503
80.2	1579	1503
80.21	1572	1503
80.22	1609	1503
80.23	1571	1503
80.24	1567	1503
80.25	1570	1503
80.26	1552	1503
80.27	1528	1502
80.28	1562	1502
80.29	1575	1502
80.3	1563	1502
80.31	1566	1502
80.32	1570	1502
80.33	1579	1502
80.34	1605	1502
80.35	1615	1502
80.36	1585	1501
80.37	1607	1501
80.38	1599	1501
80.39	1547	1501
80.4	1493	1501
80.41	1532	1501
80.42	1561	1501
80.43	1605	1501
80.44	1579	1501
80.45	1562	1500
80.46	1587	1500
80.47	1617	1500
80.48	1598	1500
80.49	1561	1500
80.5	1521	1500
80.51	1540	1500
80.52	1547	1500
80.53	1560	1499
80.54	1609	1499
80.55	1570	1499
80.56	1552	1499
80.57	1580	1499
80.58	1544	1499
80.59	1538	1499
80.6	1542	1499
80.61	1559	1499
80.62	1591	1498
80.63	1535	1498
80.64	1501	1498
80.65	1506	1498
80.66	1560	1498
80.67	1578	1498
80.68	1575	1498
80.69	1559	1498
80.7	1566	1497
80.71	1580	1497
80.72	1594	1497
80.73	1570	1497
80.74	1564	1497
80.75	1541	1497
80.76	1558	1497
80.77	1548	1497
80.78	1540	1497
80.79	1502	1496
80.8	1535	1496
80.81	1552	1496
80.82	1545	1496
80.83	1546	1496
80.84	1535	1496
80.85	1561	1496
80.86	1554	1496
80.87	1540	1496
80.88	1538	1495
80.89	1502	1495
80.9	1488	1495
80.91	1528	1495
80.92	1503	1495
80.93	1541	1495
80.94	1562	1495
80.95	1581	1495
80.96	1570	1495
80.97	1523	1494
80.98	1552	1494
80.99	1562	1494
81.0	1528	1494
81.01	1548	1494
81.02	1563	1494
81.03	1532	1494
81.04	1514	1494
81.05	1561	1494
81.06	1565	1493
81.07	1551	1493
81.08	1564	1493
81.09	1530	1493
81.1	1554	1493
81.11	1559	1493
81.12	1567	1493
81.13	1565	1493
81.14	1534	1493
81.15	1527	1492
81.16	1498	1492
81.17	1524	1492
81.18	1506	1492
81.19	1482	1492
81.2	1510	1492
81.21	1553	1492
81.22	1546	1492
81.23	1499	1492
81.24	1488	1491
81.25	1522	1491
81.26	1511	1491
81.27	1525	1491
81.28	1573	1491
81.29	1534	1491
81.3	1555	1491
81.31	1538	1491
81.32	1568	1491
81.33	1579	1491
81.34	1542	1490
81.35	1522	1490
81.36	1581	1490
81.37	1579	1490
81.38	1512	1490
81.39	1535	1490
81.4	1581	1490
81.41	1571	1490
81.42	1556	1490
81.43	1533	1489
81.44	1538	1489
81.45	1541	1489
81.46	1556	1489
81.47	1589	1489
81.48	1566	1489
81.49	1533	1489
81.5	1579	1489
81.51	1533	1489
81.52	1570	1489
81.53	1557	1488
81.54	1574	1488
81.55	1483	1488
81.56	1526	1488
81.57	1600	1488
81.58	1535	1488
81.59	1545	1488
81.6	1523	1488
81.61	1494	1488
81.62	1482	1487
81.63	1517	1487
81.64	1519	1487
81.65	1530	1487
81.66	1556	1487
81.67	1540	1487
81.68	1483	1487
81.69	1537	1487
81.7	1556	1487
81.71	1550	1487
81.72	1529	1486
81.73	1544	1486
81.74	1572	1486
81.75	1610	1486
81.76	1540	1486
81.77	1558	1486
81.78	1559	1486
81.79	1555	1486
81.8	1522	1486
81.81	1540	1486
81.82	1551	1485
81.83	1595	1485
81.84	1545	1485
81.85	1518	1485
81.86	1537	1485
81.87	1547	1485
81.88	1563	1485
81.89	1543	1485
81.9	1519	1485
81.91	1503	1485
81.92	1516	1484
81.93	1555	1484
81.94	1520	1484
81.95	1490	1484
81.96	1505	1484
81.97	1533	1484
81.98	1518	1484
81.99	1566	1484
82.0	1555	1484
82.01	1564	1484
82.02	1519	1483
82.03	1489	1483
82.04	1496	1483
82.05	1486	1483
82.06	1460	1483
82.07	1516	1483
82.08	1520	1483
82.09	1503	1483
82.1	1537	1483
82.11	1532	1483
82.12	1527	1482
82.13	1508	1482
82.14	1550	1482
82.15	1572	1482
82.16	1546	1482
82.17	1546	1482
82.18	1570	1482
82.19	1563	1482
82.2	1562	1482
82.21	1521	1482
82.22	1529	1482
82.23	1547	1481
82.24	1545	1481
82.25	1554	1481
82.26	1531	1481
82.27	1526	1481
82.28	1488	1481
82.29	1461	1481
82.3	1529	1481
82.31	1573	1481
82.32	1555	1481
82.33	1526	1481
82.34	1557	1480
82.35	1573	1480
82.36	1535	1480
82.37	1544	1480
82.38	1533	1480
82.39	1515	1480
82.4	1550	1480
82.41	1528	1480
82.42	1521	1480
82.43	1525	1480
82.44	1532	1480
82.45	1530	1479
82.46	1506	1479
82.47	1519	1479
82.48	1530	1479
82.49	1566	1479
82.5	1562	1479
82.51	1514	1479
82.52	1479	1479
82.53	1499	1479
82.54	1532	1479
82.55	1558	1479
82.56	1561	1478
82.57	1490	1478
82.58	1514	1478
82.59	1529	1478
82.6	1527	1478
82.61	1530	1478
82.62	1527	1478
82.63	1567	1478
82.64	1532	1478
82.65	1529	1478
82.66	1530	1478
82.67	1535	1477
82.68	1546	1477
82.69	1565	1477
82.7	1573	1477
82.71	1522	1477
82.72	1546	1477
82.73	1552	1477
82.74	1559	1477
82.75	1538	1477
82.76	1506	1477
82.77	1517	1477
82.78	1525	1477
82.79	1468	1476
82.8	1487	1476
82.81	1491	1476
82.82	1497	1476
82.83	1484	1476
82.84	1504	1476
82.85	1516	1476
82.86	1503	1476
82.87	1508	1476
82.88	1488	1476
82.89	1476	1476
82.9	1494	1476
82.91	1506	1475
82.92	1496	1475
82.93	1538	1475
82.94	1534	1475
82.95	1501	1475
82.96	1560	1475
82.97	1554	1475
82.98	1537	1475
82.99	1518	1475
83.0	1513	1475
83.01	1517	1475
83.02	1575	1475
83.03	1563	1474
83.04	1564	1474
83.05	1571	1474
83.06	1592	1474
83.07	1598	1474
83.08	1565	1474
83.09	1563	1474
83.1	1578	1474
83.11	1609	1474
83.12	1596	1474
83.13	1572	1474
83.14	1590	1474
83.15	1579	1474
83.16	1568	1473
83.17	1630	1473
83.18	1670	1473
83.19	1666	1473
83.2	1620	1473
83.21	1649	1473
83.22	1611	1473
83.23	1641	1473
83.24	1608	1473
83.25	1646	1473
83.26	1577	1473
83.27	1576	1473
83.28	1577	1473
83.29	1517	1472
83.3	1509	1472
83.31	1545	1472
83.32	1574	1472
83.33	1580	1472
83.34	1577	1472
83.35	1567	1472
83.36	1553	1472
83.37	1560	1472
83.38	1555	1472
83.39	1587	1472
83.4	1542	1472
83.41	1558	1472
83.42	1547	1471
83.43	1552	1471
83.44	1564	1471
83.45	1622	1471
83.46	1618	1471
83.47	1606	1471
83.48	1547	1471
83.49	1532	1471
83.5	1571	1471
83.51	1562	1471
83.52	1583	1471
83.53	1610	1471
83.54	1548	1471
83.55	1512	1471
83.56	1547	1470
83.57	1566	1470
83.58	1514	1470
83.59	1510	1470
83.6	1525	1470
83.61	1507	1470
83.62	1533	1470
83.63	1524	1470
83.64	1510	1470
83.65	1570	1470
83.66	1562	1470
83.67	1507	1470
83.68	1512	1470
83.69	1512	1470
83.7	1572	1469
83.71	1570	1469
83.72	1525	1469
83.73	1540	1469
83.74	1564	1469
83.75	1518	1469
83.76	1493	1469
83.77	1540	1469
83.78	1531	1469
83.79	1534	1469
83.8	1522	1469
83.81	1547	1469
83.82	1529	1469
83.83	1538	1469
83.84	1522	1469
83.85	1531	1468
83.86	1518	1468
83.87	1511	1468
83.88	1596	1468
83.89	1580	1468
83.9	1528	1468
83.91	1549	1468
83.92	1575	1468
83.93	1573	1468
83.94	1551	1468
83.95	1534	1468
83.96	1542	1468
83.97	1530	1468
83.98	1499	1468
83.99	1488	1468
84.0	1494	1468
84.01	1503	1467
84.02	1502	1467
84.03	1531	1467
84.04	1540	1467
84.05	1557	1467
84.06	1554	1467
84.07	1536	1467
84.08	1522	1467
84.09	1556	1467
84.1	1546	1467
84.11	1507	1467
84.12	1485	1467
84.13	1498	1467
84.14	1511	1467
84.15	1497	1467
84.16	1479	1467
84.17	1494	1466
84.18	1487	1466
84.19	1540	1466
84.2	1536	1466
84.21	1502	1466
84.22	1482	1466
84.23	1511	1466
84.24	1511	1466
84.25	1477	1466
84.26	1478	1466
84.27	1525	1466
84.28	1543	1466
84.29	1547	1466
84.3	1511	1466
84.31	1517	1466
84.32	1519	1466
84.33	1510	1466
84.34	1496	1466
84.35	1498	1465
84.36	1499	1465
84.37	1517	1465
84.38	1540	1465
84.39	1517	1465
84.4	1525	1465
84.41	1527	1465
84.42	1506	1465
84.43	1524	1465
84.44	1552	1465
84.45	1532	1465
84.46	1515	1465
84.47	1488	1465
84.48	1475	1465
84.49	1528	1465
84.5	1540	1465
84.51	1512	1465
84.52	1514	1465
84.53	1483	1465
84.54	1528	1464
84.55	1519	1464
84.56	1510	1464
84.57	1539	1464
84.58	1513	1464
84.59	1500	1464
84.6	1506	1464
84.61	1517	1464
84.62	1535	1464
84.63	1533	1464
84.64	1510	1464
84.65	1522	1464
84.66	1510	1464
84.67	1509	1464
84.68	1524	1464
84.69	1511	1464
84.7	1500	1464
84.71	1485	1464
84.72	1526	1464
84.73	1537	1464
84.74	1544	1463
84.75	1535	1463
84.76	1535	1463
84.77	1507	1463
84.78	1500	1463
84.79	1530	1463
84.8	1499	1463
84.81	1525	1463
84.82	1561	1463
84.83	1518	1463
84.84	1468	1463
84.85	1481	1463
84.86	1495	1463
84.87	1532	1463
84.88	1542	1463
84.89	1536	1463
84.9	1518	1463
84.91	1467	1463
84.92	1492	1463
84.93	1481	1463
84.94	1487	1463
84.95	1503	1463
84.96	1508	1462
84.97	1533	1462
84.98	1518	1462
84.99	1542	1462
85.0	1525	1462
85.01	1504	1462
85.02	1518	1462
85.03	1532	1462
85.04	1528	1462
85.05	1513	1462
85.06	1537	1462
85.07	1506	1462
85.08	1496	1462
85.09	1517	1462
85.1	1531	1462
85.11	1495	1462
85.12	1509	1462
85.13	1521	1462
85.14	1492	1462
85.15	1514	1462
85.16	1502	1462
85.17	1482	1462
85.18	1491	1462
85.19	1517	1462
85.2	1539	1462
85.21	1528	1461
85.22	1492	1461
85.23	1515	1461
85.24	1501	1461
85.25	1505	1461
85.26	1497	1461
85.27	1525	1461
85.28	1543	1461
85.29	1502	1461
85.3	1469	1461
85.31	1496	1461
85.32	1534	1461
85.33	1558	1461
85.34	1548	1461
85.35	1552	1461
85.36	1553	1461
85.37	1528	1461
85.38	1531	1461
85.39	1516	1461
85.4	1525	1461
85.41	1506	1461
85.42	1490	1461
85.43	1507	1461
85.44	1506	1461
85.45	1511	1461
85.46	1524	1461
85.47	1536	1461
85.48	1503	1461
85.49	1493	1461
85.5	1518	1461
85.51	1549	1460
85.52	1581	1460
85.53	1573	1460
85.54	1515	1460
85.55	1488	1460
85.56	1505	1460
85.57	1518	1460
85.58	1502	1460
85.59	1511	1460
85.6	1534	1460
85.61	1511	1460
85.62	1507	1460
85.63	1477	1460
85.64	1495	1460
85.65	1558	1460
85.66	1522	1460
85.67	1488	1460
85.68	1498	1460
85.69	1515	1460
85.7	1517	1460
85.71	1538	1460
85.72	1527	1460
85.73	1517	1460
85.74	1498	1460
85.75	1490	1460
85.76	1529	1460
85.77	1543	1460
85.78	1546	1460
85.79	1533	1460
85.8	1513	1460
85.81	1512	1460
85.82	1518	1460
85.83	1507	1460
85.84	1495	1460
85.85	1481	1460
85.86	1483	1460
85.87	1518	1460
85.88	1496	1460
85.89	1501	1460
85.9	1484	1459
85.91	1521	1459
85.92	1557	1459
85.93	1551	1459
85.94	1547	1459
85.95	1549	1459
85.96	1554	1459
85.97	1528	1459
85.98	1524	1459
85.99	1506	1459
86.0	1528	1459
86.01	1517	1459
86.02	1486	1459
86.03	1515	1459
86.04	1523	1459
86.05	1536	1459
86.06	1518	1459
86.07	1510	1459
86.08	1561	1459
86.09	1561	1459
86.1	1551	1459
86.11	1538	1459
86.12	1548	1459
86.13	1484	1459
86.14	1480	1459
86.15	1540	1459
86.16	1542	1459
86.17	1555	1459
86.18	1589	1459
86.19	1585	1459
86.2	1584	1459
86.21	1546	1459
86.22	1526	1459
86.23	1515	1459
86.24	1561	1459
86.25	1565	1459
86.26	1556	1459
86.27	1549	1459
86.28	1530	1459
86.29	1564	1459
86.3	1588	1459
86.31	1587	1459
86.32	1597	1459
86.33	1593	1459
86.34	1581	1459
86.35	1587	1459
86.36	1618	1459
86.37	1647	1459
86.38	1645	1459
86.39	1631	1459
86.4	1611	1459
86.41	1644	1459
86.42	1696	1459
86.43	1667	1459
86.44	1677	1459
86.45	1699	1459
86.46	1701	1459
86.47	1737	1459
86.48	1744	1459
86.49	1761	1459
86.5	1793	1459
86.51	1836	1459
86.52	1895	1459
86.53	1972	1459
86.54	2043	1459
86.55	2111	1459
86.56	2168	1459
86.57	2217	1459
86.58	2289	1459
86.59	2338	1459
86.6	2368	1459
86.61	2384	1459
86.62	2356	1459
86.63	2327	1459
86.64	2259	1459
86.65	2231	1459
86.66	2164	1459
86.67	2097	1459
86.68	2030	1459
86.69	2000	1459
86.7	1967	1459
86.71	1919	1459
86.72	1878	1459
86.73	1869	1459
86.74	1848	1459
86.75	1790	1459
86.76	1752	1459
86.77	1741	1459
86.78	1801	1459
86.79	1849	1459
86.8	1830	1459
86.81	1860	1459
86.82	1873	1459
86.83	1907	1459
86.84	1955	1459
86.85	1943	1459
86.86	1982	1459
86.87	1960	1459
86.88	1981	1459
86.89	1994	1459
86.9	2030	1459
86.91	2013	1459
86.92	1939	1459
86.93	1842	1459
86.94	1797	1459
86.95	1810	1459
86.96	1746	1459
86.97	1706	1459
86.98	1687	1459
86.99	1645	1459
87.0	1619	1459
87.01	1649	1459
87.02	1638	1459
87.03	1597	1459
87.04	1577	1459
87.05	1553	1459
87.06	1571	1459
87.07	1611	1459
87.08	1597	1459
87.09	1570	1459
87.1	1569	1459
87.11	1543	1459
87.12	1537	1459
87.13	1538	1459
87.14	1541	1459
87.15	1540	1459
87.16	1569	1459
87.17	1575	1459
87.18	1551	1459
87.19	1545	1459
87.2	1552	1459
87.21	1561	1459
87.22	1572	1459
87.23	1550	1459
87.24	1505	1459
87.25	1533	1459
87.26	1498	1459
87.27	1523	1459
87.28	1525	1459
87.29	1518	1459
87.3	1496	1459
87.31	1494	1459
87.32	1512	1459
87.33	1515	1459
87.34	1514	1459
87.35	1545	1459
87.36	1534	1459
87.37	1505	1459
87.38	1525	1459
87.39	1547	1459
87.4	1538	1459
87.41	1505	1459
87.42	1513	1459
87.43	1548	1459
87.44	1565	1459
87.45	1541	1459
87.46	1506	1459
87.47	1511	1459
87.48	1545	1459
87.49	1532	1459
87.5	1556	1459
87.51	1573	1459
87.52	1562	1459
87.53	1508	1459
87.54	1489	1459
87.55	1516	1459
87.56	1512	1459
87.57	1531	1459
87.58	1546	1460
87.59	1542	1460
87.6	1534	1460
87.61	1529	1460
87.62	1527	1460
87.63	1522	1460
87.64	1523	1460
87.65	1535	1460
87.66	1541	1460
87.67	1563	1460
87.68	1547	1460
87.69	1498	1460
87.7	1523	1460
87.71	1552	1460
87.72	1495	1460
87.73	1468	1460
87.74	1537	1460
87.75	1542	1460
87.76	1509	1460
87.77	1498	1460
87.78	1500	1460
87.79	1472	1460
87.8	1479	1460
87.81	1493	1460
87.82	1510	1460
87.83	1495	1460
87.84	1513	1460
87.85	1533	1460
87.86	1494	1460
87.87	1514	1460
87.88	1503	1460
87.89	1523	1460
87.9	1555	1460
87.91	1536	1460
87.92	1542	1460
87.93	1527	1460
87.94	1507	1460
87.95	1524	1461
87.96	1522	1461
87.97	1516	1461
87.98	1507	1461
87.99	1524	1461
88.0	1535	1461
88.01	1539	1461
88.02	1541	1461
88.03	1519	1461
88.04	1491	1461
88.05	1513	1461
88.06	1519	1461
88.07	1510	1461
88.08	1492	1461
88.09	1483	1461
88.1	1451	1461
88.11	1479	1461
88.12	1492	1461
88.13	1504	1461
88.14	1479	1461
88.15	1450	1461
88.16	1457	1461
88.17	1502	1461
88.18	1491	1461
88.19	1457	1461
88.2	1471	1461
88.21	1521	1461
88.22	1539	1461
88.23	1537	1462
88.24	1520	1462
88.25	1538	1462
88.26	1522	1462
88.27	1530	1462
88.28	1520	1462
88.29	1536	1462
88.3	1546	1462
88.31	1539	1462
88.32	1559	1462
88.33	1565	1462
88.34	1546	1462
88.35	1506	1462
88.36	1490	1462
88.37	1484	1462
88.38	1532	1462
88.39	1525	1462
88.4	1488	1462
88.41	1485	1462
88.42	1536	1462
88.43	1551	1462
88.44	1565	1462
88.45	1553	1462
88.46	1501	1463
88.47	1508	1463
88.48	1539	1463
88.49	1533	1463
88.5	1506	1463
88.51	1521	1463
88.52	1557	1463
88.53	1569	1463
88.54	1554	1463
88.55	1558	1463
88.56	1569	1463
88.57	1560	1463
88.58	1546	1463
88.59	1524	1463
88.6	1544	1463
88.61	1568	1463
88.62	1579	1463
88.63	1536	1463
88.64	1521	1463
88.65	1569	1463
88.66	1594	1464
88.67	1602	1464
88.68	1612	1464
88.69	1617	1464
88.7	1619	1464
88.71	1599	1464
88.72	1638	1464
88.73	1662	1464
88.74	1669	1464
88.75	1654	1464
88.76	1658	1464
88.77	1683	1464
88.78	1692	1464
88.79	1721	1464
88.8	1685	1464
88.81	1690	1464
88.82	1706	1464
88.83	1756	1464
88.84	1802	1464
88.85	1807	1465
88.86	1824	1465
88.87	1835	1465
88.88	1855	1465
88.89	1847	1465
88.9	1855	1465
88.91	1855	1465
88.92	1897	1465
88.93	1918	1465
88.94	1887	1465
88.95	1846	1465
88.96	1824	1465
88.97	1835	1465
88.98	1857	1465
88.99	1852	1465
89.0	1856	1465
89.01	1829	1465
89.02	1782	1466
89.03	1746	1466
89.04	1746	1466
89.05	1759	1466
89.06	1776	1466
89.07	1763	1466
89.08	1760	1466
89.09	1768	1466
89.1	1724	1466
89.11	1719	1466
89.12	1718	1466
89.13	1695	1466
89.14	1759	1466
89.15	1778	1466
89.16	1756	1466
89.17	1761	1466
89.18	1740	1466
89.19	1711	1467
89.2	1718	1467
89.21	1736	1467
89.22	1719	1467
89.23	1692	1467
89.24	1688	1467
89.25	1688	1467
89.26	1703	1467
89.27	1692	1467
89.28	1682	1467
89.29	1660	1467
89.3	1650	1467
89.31	1655	1467
89.32	1640	1467
89.33	1609	1467
89.34	1610	1468
89.35	1592	1468
89.36	1575	1468
89.37	1573	1468
89.38	1578	1468
89.39	1592	1468
89.4	1586	1468
89.41	1596	1468
89.42	1559	1468
89.43	1568	1468
89.44	1596	1468
89.45	1578	1468
89.46	1539	1468
89.47	1543	1468
89.48	1575	1468
89.49	1588	1469
89.5	1578	1469
89.51	1529	1469
89.52	1493	1469
89.53	1515	1469
89.54	1549	1469
89.55	1522	1469
89.56	1499	1469
89.57	1499	1469
89.58	1488	1469
89.59	1489	1469
89.6	1531	1469
89.61	1558	1469
89.62	1518	1469
89.63	1517	1469
89.64	1559	1470
89.65	1564	1470
89.66	1511	1470
89.67	1506	1470
89.68	1551	1470
89.69	1575	1470
89.7	1528	1470
89.71	1471	1470
89.72	1470	1470
89.73	1504	1470
89.74	1508	1470
89.75	1502	1470
89.76	1506	1470
89.77	1517	1470
89.78	1507	1471
89.79	1541	1471
89.8	1559	1471
89.81	1546	1471
89.82	1551	1471
89.83	1523	1471
89.84	1515	1471
89.85	1507	1471
89.86	1493	1471
89.87	1502	1471
89.88	1506	1471
89.89	1509	1471
89.9	1504	1471
89.91	1469	1472
89.92	1484	1472
89.93	1544	1472
89.94	1525	1472
89.95	1461	1472
89.96	1481	1472
89.97	1530	1472
89.98	1558	1472
89.99	1565	1472
90.0	1485	1472
90.01	1471	1472
90.02	1503	1472
90.03	1515	1472
90.04	1509	1472
90.05	1510	1473
90.06	1517	1473
90.07	1508	1473
90.08	1495	1473
90.09	1494	1473
90.1	1495	1473
90.11	1482	1473
90.12	1475	1473
90.13	1476	1473
90.14	1469	1473
90.15	1478	1473
90.16	1483	1473
90.17	1485	1473
90.18	1503	1474
90.19	1511	1474
90.2	1501	1474
90.21	1488	1474
90.22	1504	1474
90.23	1518	1474
90.24	1518	1474
90.25	1540	1474
90.26	1555	1474
90.27	1518	1474
90.28	1504	1474
90.29	1497	1474
90.3	1488	1474
90.31	1492	1475
90.32	1483	1475
90.33	1492	1475
90.34	1517	1475
90.35	1513	1475
90.36	1478	1475
90.37	1457	1475
90.38	1481	1475
90.39	1502	1475
90.4	1515	1475
90.41	1501	1475
90.42	1469	1475
90.43	1505	1476
90.44	1546	1476
90.45	1533	1476
90.46	1521	1476
90.47	1514	1476
90.48	1459	1476
90.49	1445	1476
90.5	1498	1476
90.51	1520	1476
90.52	1516	1476
90.53	1506	1476
90.54	1487	1476
90.55	1474	1476
90.56	1453	1477
90.57	1469	1477
90.58	1491	1477
90.59	1498	1477
90.6	1502	1477
90.61	1477	1477
90.62	1438	1477
90.63	1462	1477
90.64	1517	1477
90.65	1524	1477
90.66	1500	1477
90.67	1527	1477
90.68	1544	1478
90.69	1517	1478
90.7	1481	1478
90.71	1459	1478
90.72	1468	1478
90.73	1472	1478
90.74	1471	1478
90.75	1494	1478
90.76	1515	1478
90.77	1501	1478
90.78	1489	1478
90.79	1492	1478
90.8	1510	1478
90.81	1536	1479
90.82	1537	1479
90.83	1510	1479
90.84	1470	1479
90.85	1454	1479
90.86	1457	1479
90.87	1472	1479
90.88	1514	1479
90.89	1517	1479
90.9	1498	1479
90.91	1488	1479
90.92	1484	1479
90.93	1476	1480
90.94	1483	1480
90.95	1502	1480
90.96	1513	1480
90.97	1506	1480
90.98	1503	1480
90.99	1501	1480
91.0	1474	1480
91.01	1476	1480
91.02	1504	1480
91.03	1505	1480
91.04	1513	1480
91.05	1514	1481
91.06	1518	1481
91.07	1530	1481
91.08	1513	1481
91.09	1492	1481
91.1	1515	1481
91.11	1537	1481
91.12	1526	1481
91.13	1495	1481
91.14	1485	1481
91.15	1477	1481
91.16	1453	1481
91.17	1464	1482
91.18	1480	1482
91.19	1490	1482
91.2	1499	1482
91.21	1515	1482
91.22	1523	1482
91.23	1514	1482
91.24	1516	1482
91.25	1536	1482
91.26	1551	1482
91.27	1529	1482
91.28	1507	1482
91.29	1497	1482
91.3	1500	1483
91.31	1536	1483
91.32	1527	1483
91.33	1523	1483
91.34	1540	1483
91.35	1527	1483
91.36	1499	1483
91.37	1495	1483
91.38	1531	1483
91.39	1534	1483
91.4	1525	1483
91.41	1506	1483
91.42	1484	1484
91.43	1476	1484
91.44	1484	1484
91.45	1503	1484
91.46	1500	1484
91.47	1480	1484
91.48	1454	1484
91.49	1475	1484
91.5	1504	1484
91.51	1487	1484
91.52	1486	1484
91.53	1493	1484
91.54	1494	1485
91.55	1511	1485
91.56	1521	1485
91.57	1518	1485
91.58	1529	1485
91.59	1535	1485
91.6	1537	1485
91.61	1518	1485
91.62	1479	1485
91.63	1495	1485
91.64	1524	1485
91.65	1497	1485
91.66	1474	1486
91.67	1479	1486
91.68	1493	1486
91.69	1495	1486
91.7	1495	1486
91.71	1487	1486
91.72	1501	1486
91.73	1529	1486
91.74	1511	1486
91.75	1467	1486
91.76	1477	1486
91.77	1521	1486
91.78	1522	1486
91.79	1506	1487
91.8	1487	1487
91.81	1481	1487
91.82	1489	1487
91.83	1493	1487
91.84	1501	1487
91.85	1528	1487
91.86	1526	1487
91.87	1514	1487
91.88	1515	1487
91.89	1504	1487
91.9	1500	1487
91.91	1502	1488
91.92	1494	1488
91.93	1492	1488
91.94	1512	1488
91.95	1522	1488
91.96	1516	1488
91.97	1519	1488
91.98	1514	1488
91.99	1502	1488
92.0	1510	1488
92.01	1520	1488
92.02	1493	1488
92.03	1467	1488
92.04	1468	1489
92.05	1494	1489
92.06	1512	1489
92.07	1525	1489
92.08	1544	1489
92.09	1545	1489
92.1	1527	1489
92.11	1559	1489
92.12	1571	1489
92.13	1531	1489
92.14	1528	1489
92.15	1517	1489
92.16	1484	1490
92.17	1486	1490
92.18	1499	1490
92.19	1506	1490
92.2	1506	1490
92.21	1525	1490
92.22	1542	1490
92.23	1531	1490
92.24	1530	1490
92.25	1562	1490
92.26	1570	1490
92.27	1548	1490
92.28	1551	1490
92.29	1548	1491
92.3	1544	1491
92.31	1557	1491
92.32	1546	1491
92.33	1547	1491
92.34	1587	1491
92.35	1566	1491
92.36	1563	1491
92.37	1569	1491
92.38	1557	1491
92.39	1570	1491
92.4	1590	1491
92.41	1580	1491
92.42	1558	1492
92.43	1571	1492
92.44	1574	1492
92.45	1582	1492
92.46	1582	1492
92.47	1574	1492
92.48	1577	1492
92.49	1580	1492
92.5	1586	1492
92.51	1578	1492
92.52	1552	1492
92.53	1552	1492
92.54	1583	1492
92.55	1595	1492
92.56	1544	1493
92.57	1564	1493
92.58	1581	1493
92.59	1557	1493
92.6	1551	1493
92.61	1561	1493
92.62	1548	1493
92.63	1525	1493
92.64	1507	1493
92.65	1515	1493
92.66	1533	1493
92.67	1557	1493
92.68	1577	1493
92.69	1588	1494
92.7	1596	1494
92.71	1598	1494
92.72	1593	1494
92.73	1573	1494
92.74	1581	1494
92.75	1587	1494
92.76	1570	1494
92.77	1546	1494
92.78	1534	1494
92.79	1528	1494
92.8	1548	1494
92.81	1565	1494
92.82	1533	1494
92.83	1536	1495
92.84	1537	1495
92.85	1518	1495
92.86	1503	1495
92.87	1538	1495
92.88	1540	1495
92.89	1501	1495
92.9	1504	1495
92.91	1509	1495
92.92	1482	1495
92.93	1492	1495
92.94	1509	1495
92.95	1504	1495
92.96	1526	1495
92.97	1553	1495
92.98	1528	1496
92.99	1546	1496
93.0	1566	1496
93.01	1556	1496
93.02	1542	1496
93.03	1522	1496
93.04	1505	1496
93.05	1517	1496
93.06	1526	1496
93.07	1562	1496
93.08	1559	1496
93.09	1538	1496
93.1	1517	1496
93.11	1539	1496
93.12	1541	1496
93.13	1530	1497
93.14	1531	1497
93.15	1534	1497
93.16	1562	1497
93.17	1565	1497
93.18	1575	1497
93.19	1585	1497
93.2	1569	1497
93.21	1542	1497
93.22	1537	1497
93.23	1537	1497
93.24	1527	1497
93.25	1527	1497
93.26	1528	1497
93.27	1529	1497
93.28	1527	1498
93.29	1542	1498
93.3	1569	1498
93.31	1589	1498
93.32	1602	1498
93.33	1596	1498
93.34	1581	1498
93.35	1582	1498
93.36	1572	1498
93.37	1554	1498
93.38	1586	1498
93.39	1581	1498
93.4	1537	1498
93.41	1547	1498
93.42	1564	1498
93.43	1611	1498
93.44	1627	1499
93.45	1600	1499
93.46	1620	1499
93.47	1622	1499
93.48	1623	1499
93.49	1622	1499
93.5	1609	1499
93.51	1618	1499
93.52	1634	1499
93.53	1634	1499
93.54	1669	1499
93.55	1698	1499
93.56	1688	1499
93.57	1665	1499
93.58	1652	1499
93.59	1687	1499
93.6	1733	1499
93.61	1750	1499
93.62	1809	1500
93.63	1809	1500
93.64	1799	1500
93.65	1883	1500
93.66	1968	1500
93.67	1996	1500
93.68	2045	1500
93.69	2120	1500
93.7	2169	1500
93.71	2218	1500
93.72	2343	1500
93.73	2415	1500
93.74	2421	1500
93.75	2449	1500
93.76	2478	1500
93.77	2448	1500
93.78	2390	1500
93.79	2324	1500
93.8	2235	1501
93.81	2186	1501
93.82	2130	1501
93.83	2030	1501
93.84	1946	1501
93.85	1903	1501
93.86	1889	1501
93.87	1857	1501
93.88	1809	1501
93.89	1788	1501
93.9	1798	1501
93.91	1747	1501
93.92	1736	1501
93.93	1772	1501
93.94	1778	1501
93.95	1766	1501
93.96	1795	1501
93.97	1813	1501
93.98	1843	1501
93.99	1883	1501
94.0	1897	1502
94.01	1895	1502
94.02	1955	1502
94.03	1972	1502
94.04	1968	1502
94.05	2014	1502
94.06	2039	1502
94.07	2053	1502
94.08	2027	1502
94.09	1931	1502
94.1	1857	1502
94.11	1875	1502
94.12	1857	1502
94.13	1799	1502
94.14	1785	1502
94.15	1735	1502
94.16	1686	1502
94.17	1718	1502
94.18	1687	1502
94.19	1633	1502
94.2	1648	1502
94.21	1662	1502
94.22	1630	1502
94.23	1605	1503
94.24	1621	1503
94.25	1594	1503
94.26	1579	1503
94.27	1610	1503
94.28	1611	1503
94.29	1562	1503
94.3	1523	1503
94.31	1560	1503
94.32	1627	1503
94.33	1669	1503
94.34	1638	1503
94.35	1556	1503
94.36	1548	1503
94.37	1530	1503
94.38	1539	1503
94.39	1557	1503
94.4	1525	1503
94.41	1522	1503
94.42	1592	1503
94.43	1572	1503
94.44	1541	1503
94.45	1531	1503
94.46	1563	1503
94.47	1569	1503
94.48	1525	1503
94.49	1472	1503
94.5	1482	1504
94.51	1532	1504
94.52	1555	1504
94.53	1551	1504
94.54	1547	1504
94.55	1530	1504
94.56	1510	1504
94.57	1495	1504
94.58	1494	1504
94.59	1550	1504
94.6	1570	1504
94.61	1510	1504
94.62	1508	1504
94.63	1523	1504
94.64	1514	1504
94.65	1530	1504
94.66	1536	1504
94.67	1536	1504
94.68	1544	1504
94.69	1530	1504
94.7	1532	1504
94.71	1577	1504
94.72	1549	1504
94.73	1516	1504
94.74	1514	1504
94.75	1497	1504
94.76	1522	1504
94.77	1540	1504
94.78	1489	1504
94.79	1503	1504
94.8	1532	1504
94.81	1537	1504
94.82	1561	1504
94.83	1555	1504
94.84	1507	1504
94.85	1476	1504
94.86	1489	1505
94.87	1537	1505
94.88	1526	1505
94.89	1508	1505
94.9	1537	1505
94.91	1546	1505
94.92	1521	1505
94.93	1493	1505
94.94	1497	1505
94.95	1504	1505
94.96	1537	1505
94.97	1542	1505
94.98	1539	1505
94.99	1529	1505
95.0	1522	1505
95.01	1539	1505
95.02	1511	1505
95.03	1517	1505
95.04	1553	1505
95.05	1540	1505
95.06	1523	1505
95.07	1517	1505
95.08	1520	1505
95.09	1539	1505
95.1	1554	1505
95.11	1551	1505
95.12	1518	1505
95.13	1536	1505
95.14	1513	1505
95.15	1512	1505
95.16	1535	1505
95.17	1576	1505
95.18	1544	1505
95.19	1511	1505
95.2	1564	1505
95.21	1566	1505
95.22	1509	1505
95.23	1484	1505
95.24	1523	1505
95.25	1551	1505
95.26	1548	1505
95.27	1542	1505
95.28	1514	1505
95.29	1489	1505
95.3	1521	1505
95.31	1540	1505
95.32	1552	1505
95.33	1513	1505
95.34	1523	1505
95.35	1554	1505
95.36	1551	1505
95.37	1499	1505
95.38	1537	1505
95.39	1535	1505
95.4	1542	1505
95.41	1530	1505
95.42	1532	1505
95.43	1538	1505
95.44	1541	1505
95.45	1538	1505
95.46	1579	1505
95.47	1601	1505
95.48	1585	1505
95.49	1550	1505
95.5	1554	1505
95.51	1585	1505
95.52	1577	1505
95.53	1549	1505
95.54	1528	1505
95.55	1592	1505
95.56	1640	1505
95.57	1617	1505
95.58	1582	1505
95.59	1544	1505
95.6	1569	1505
95.61	1593	1505
95.62	1605	1505
95.63	1572	1505
95.64	1564	1505
95.65	1578	1505
95.66	1585	1505
95.67	1582	1505
95.68	1596	1505
95.69	1609	1505
95.7	1608	1505
95.71	1628	1505
95.72	1644	1505
95.73	1646	1505
95.74	1669	1505
95.75	1675	1505
95.76	1658	1505
95.77	1676	1505
95.78	1713	1505
95.79	1715	1505
95.8	1714	1505
95.81	1732	1505
95.82	1799	1505
95.83	1836	1505
95.84	1890	1505
95.85	1944	1505
95.86	2001	1505
95.87	2056	1505
95.88	2115	1505
95.89	2205	1505
95.9	2315	1505
95.91	2420	1505
95.92	2461	1505
95.93	2571	1505
95.94	2698	1505
95.95	2749	1505
95.96	2805	1505
95.97	2799	1505
95.98	2797	1505
95.99	2693	1505
96.0	2573	1505
96.01	2434	1505
96.02	2360	1505
96.03	2316	1505
96.04	2241	1505
96.05	2142	1505
96.06	2074	1505
96.07	2014	1505
96.08	1998	1505
96.09	1978	1505
96.1	1934	1505
96.11	1882	1505
96.12	1835	1505
96.13	1843	1505
96.14	1830	1505
96.15	1815	1505
96.16	1841	1505
96.17	1861	1505
96.18	1872	1505
96.19	1921	1505
96.2	1968	1505
96.21	1969	1505
96.22	2046	1505
96.23	2067	1505
96.24	2058	1505
96.25	2093	1505
96.26	2112	1505
96.27	2119	1505
96.28	2145	1505
96.29	2175	1505
96.3	2163	1505
96.31	2136	1505
96.32	2062	1505
96.33	2002	1505
96.34	1938	1505
96.35	1929	1505
96.36	1909	1505
96.37	1861	1505
96.38	1807	1505
96.39	1763	1505
96.4	1746	1505
96.41	1692	1505
96.42	1674	1505
96.43	1666	1505
96.44	1640	1505
96.45	1688	1505
96.46	1648	1505
96.47	1623	1505
96.48	1613	1505
96.49	1581	1505
96.5	1586	1505
96.51	1591	1505
96.52	1588	1505
96.53	1609	1505
96.54	1605	1505
96.55	1578	1505
96.56	1572	1505
96.57	1561	1505
96.58	1562	1505
96.59	1547	1505
96.6	1537	1505
96.61	1582	1505
96.62	1571	1505
96.63	1540	1505
96.64	1577	1505
96.65	1583	1505
96.66	1525	1505
96.67	1528	1504
96.68	1543	1504
96.69	1562	1504
96.7	1570	1504
96.71	1584	1504
96.72	1547	1504
96.73	1496	1504
96.74	1515	1504
96.75	1502	1504
96.76	1546	1504
96.77	1571	1504
96.78	1558	1504
96.79	1554	1504
96.8	1583	1504
96.81	1609	1504
96.82	1602	1504
96.83	1538	1504
96.84	1484	1504
96.85	1510	1504
96.86	1520	1504
96.87	1552	1504
96.88	1539	1504
96.89	1554	1504
96.9	1579	1504
96.91	1551	1504
96.92	1532	1504
96.93	1520	1504
96.94	1495	1504
96.95	1509	1504
96.96	1522	1504
96.97	1520	1504
96.98	1542	1504
96.99	1544	1504
97.0	1563	1504
97.01	1530	1504
97.02	1514	1504
97.03	1546	1504
97.04	1471	1504
97.05	1526	1504
97.06	1526	1504
97.07	1512	1504
97.08	1515	1504
97.09	1551	1504
97.1	1543	1503
97.11	1552	1503
97.12	1520	1503
97.13	1482	1503
97.14	1511	1503
97.15	1532	1503
97.16	1519	1503
97.17	1537	1503
97.18	1533	1503
97.19	1530	1503
97.2	1544	1503
97.21	1540	1503
97.22	1561	1503
97.23	1522	1503
97.24	1491	1503
97.25	1521	1503
97.26	1530	1503
97.27	1529	1503
97.28	1506	1503
97.29	1554	1503
97.3	1606	1503
97.31	1555	1503
97.32	1512	1503
97.33	1523	1503
97.34	1502	1503
97.35	1495	1503
97.36	1503	1503
97.37	1544	1503
97.38	1535	1503
97.39	1531	1503
97.4	1526	1503
97.41	1483	1503
97.42	1513	1503
97.43	1527	1503
97.44	1530	1502
97.45	1504	1502
97.46	1510	1502
97.47	1508	1502
97.48	1480	1502
97.49	1526	1502
97.5	1534	1502
97.51	1525	1502
97.52	1503	1502
97.53	1507	1502
97.54	1504	1502
97.55	1506	1502
97.56	1537	1502
97.57	1542	1502
97.58	1510	1502
97.59	1509	1502
97.6	1551	1502
97.61	1531	1502
97.62	1548	1502
97.63	1558	1502
97.64	1514	1502
97.65	1505	1502
97.66	1503	1502
97.67	1550	1502
97.68	1520	1502
97.69	1539	1502
97.7	1532	1502
97.71	1519	1502
97.72	1545	1502
97.73	1559	1502
97.74	1554	1501
97.75	1513	1501
97.76	1500	1501
97.77	1481	1501
97.78	1519	1501
97.79	1551	1501
97.8	1500	1501
97.81	1529	1501
97.82	1514	1501
97.83	1544	1501
97.84	1541	1501
97.85	1496	1501
97.86	1509	1501
97.87	1505	1501
97.88	1514	1501
97.89	1515	1501
97.9	1513	1501
97.91	1508	1501
97.92	1520	1501
97.93	1531	1501
97.94	1552	1501
97.95	1509	1501
97.96	1476	1501
97.97	1493	1501
97.98	1493	1501
97.99	1503	1501
98.0	1527	1501
98.01	1508	1500
98.02	1507	1500
98.03	1503	1500
98.04	1506	1500
98.05	1554	1500
98.06	1527	1500
98.07	1513	1500
98.08	1506	1500
98.09	1560	1500
98.1	1544	1500
98.11	1506	1500
98.12	1515	1500
98.13	1498	1500
98.14	1489	1500
98.15	1507	1500
98.16	1499	1500
98.17	1474	1500
98.18	1481	1500
98.19	1498	1500
98.2	1529	1500
98.21	1513	1500
98.22	1526	1500
98.23	1537	1500
98.24	1531	1500
98.25	1513	1500
98.26	1521	1499
98.27	1554	1499
98.28	1515	1499
98.29	1495	1499
98.3	1540	1499
98.31	1483	1499
98.32	1485	1499
98.33	1536	1499
98.34	1531	1499
98.35	1524	1499
98.36	1567	1499
98.37	1505	1499
98.38	1527	1499
98.39	1515	1499
98.4	1494	1499
98.41	1484	1499
98.42	1477	1499
98.43	1502	1499
98.44	1543	1499
98.45	1554	1499
98.46	1514	1499
98.47	1555	1499
98.48	1532	1499
98.49	1569	1498
98.5	1536	1498
98.51	1494	1498
98.52	1561	1498
98.53	1602	1498
98.54	1569	1498
98.55	1539	1498
98.56	1505	1498
98.57	1496	1498
98.58	1516	1498
98.59	1581	1498
98.6	1565	1498
98.61	1520	1498
98.62	1558	1498
98.63	1564	1498
98.64	1534	1498
98.65	1490	1498
98.66	1468	1498
98.67	1497	1498
98.68	1530	1498
98.69	1484	1498
98.7	1495	1498
98.71	1526	1498
98.72	1488	1497
98.73	1528	1497
98.74	1528	1497
98.75	1545	1497
98.76	1585	1497
98.77	1606	1497
98.78	1534	1497
98.79	1553	1497
98.8	1561	1497
98.81	1510	1497
98.82	1518	1497
98.83	1556	1497
98.84	1559	1497
98.85	1519	1497
98.86	1506	1497
98.87	1498	1497
98.88	1534	1497
98.89	1544	1497
98.9	1503	1497
98.91	1489	1497
98.92	1541	1497
98.93	1616	1496
98.94	1625	1496
98.95	1625	1496
98.96	1543	1496
98.97	1534	1496
98.98	1583	1496
98.99	1521	1496
99.0	1551	1496
99.01	1547	1496
99.02	1537	1496
99.03	1547	1496
99.04	1539	1496
99.05	1563	1496
99.06	1505	1496
99.07	1500	1496
99.08	1519	1496
99.09	1539	1496
99.1	1544	1496
99.11	1550	1496
99.12	1538	1496
99.13	1517	1496
99.14	1521	1496
99.15	1528	1495
99.16	1533	1495
99.17	1537	1495
99.18	1567	1495
99.19	1534	1495
99.2	1557	1495
99.21	1585	1495
99.22	1532	1495
99.23	1569	1495
99.24	1569	1495
99.25	1504	1495
99.26	1535	1495
99.27	1587	1495
99.28	1515	1495
99.29	1521	1495
99.3	1555	1495
99.31	1526	1495
99.32	1532	1495
99.33	1526	1495
99.34	1468	1495
99.35	1518	1494
99.36	1531	1494
99.37	1491	1494
99.38	1535	1494
99.39	1539	1494
99.4	1510	1494
99.41	1536	1494
99.42	1526	1494
99.43	1509	1494
99.44	1530	1494
99.45	1559	1494
99.46	1582	1494
99.47	1530	1494
99.48	1528	1494
99.49	1554	1494
99.5	1566	1494
99.51	1574	1494
99.52	1548	1494
99.53	1515	1494
99.54	1510	1494
99.55	1588	1494
99.56	1563	1493
99.57	1577	1493
99.58	1563	1493
99.59	1583	1493
99.6	1564	1493
99.61	1556	1493
99.62	1557	1493
99.63	1543	1493
99.64	1528	1493
99.65	1510	1493
99.66	1548	1493
99.67	1561	1493
99.68	1571	1493
99.69	1536	1493
99.7	1546	1493
99.71	1503	1493
99.72	1519	1493
99.73	1527	1493
99.74	1587	1493
99.75	1605	1493
99.76	1582	1492
99.77	1600	1492
99.78	1530	1492
99.79	1531	1492
99.8	1563	1492
99.81	1583	1492
99.82	1589	1492
99.83	1536	1492
99.84	1531	1492
99.85	1580	1492
99.86	1600	1492
99.87	1581	1492
99.88	1572	1492
99.89	1555	1492
99.9	1546	1492
99.91	1549	1492
99.92	1600	1492
99.93	1588	1492
99.94	1585	1492
99.95	1632	1492
99.96	1617	1491
99.97	1605	1491
99.98	1585	1491
99.99	1577	1491
100.0	1592	1491
