Single_LiF_long_scan
Wavelength = 1.54059 Ã… (Cu)
10.0	1729
10.01	1681
10.02	1677
10.03	1658
10.04	1690
10.05	1697
10.06	1678
10.07	1719
10.08	1664
10.09	1655
10.1	1698
10.11	1749
10.12	1733
10.13	1708
10.14	1698
10.15	1668
10.16	1672
10.17	1705
10.18	1713
10.19	1684
10.2	1672
10.21	1669
10.22	1671
10.23	1659
10.24	1710
10.25	1721
10.26	1707
10.27	1682
10.28	1690
10.29	1706
10.3	1721
10.31	1737
10.32	1728
10.33	1755
10.34	1743
10.35	1726
10.36	1696
10.37	1683
10.38	1650
10.39	1694
10.4	1738
10.41	1754
10.42	1705
10.43	1709
10.44	1743
10.45	1701
10.46	1731
10.47	1749
10.48	1734
10.49	1692
10.5	1744
10.51	1745
10.52	1715
10.53	1738
10.54	1706
10.55	1719
10.56	1712
10.57	1749
10.58	1725
10.59	1708
10.6	1669
10.61	1688
10.62	1670
10.63	1655
10.64	1705
10.65	1740
10.66	1760
10.67	1774
10.68	1804
10.69	1774
10.7	1770
10.71	1795
10.72	1722
10.73	1747
10.74	1747
10.75	1783
10.76	1766
10.77	1704
10.78	1715
10.79	1777
10.8	1798
10.81	1799
10.82	1769
10.83	1760
10.84	1808
10.85	1822
10.86	1776
10.87	1712
10.88	1751
10.89	1808
10.9	1787
10.91	1789
10.92	1744
10.93	1756
10.94	1782
10.95	1759
10.96	1718
10.97	1753
10.98	1805
10.99	1756
11.0	1716
11.01	1681
11.02	1772
11.03	1790
11.04	1738
11.05	1760
11.06	1803
11.07	1786
11.08	1825
11.09	1825
11.1	1757
11.11	1742
11.12	1779
11.13	1816
11.14	1734
11.15	1769
11.16	1855
11.17	1780
11.18	1800
11.19	1735
11.2	1744
11.21	1811
11.22	1797
11.23	1764
11.24	1755
11.25	1772
11.26	1825
11.27	1786
11.28	1781
11.29	1821
11.3	1799
11.31	1778
11.32	1813
11.33	1831
11.34	1773
11.35	1774
11.36	1777
11.37	1801
11.38	1828
11.39	1798
11.4	1811
11.41	1786
11.42	1800
11.43	1804
11.44	1770
11.45	1848
11.46	1841
11.47	1822
11.48	1800
11.49	1811
11.5	1825
11.51	1804
11.52	1857
11.53	1823
11.54	1836
11.55	1778
11.56	1850
11.57	1856
11.58	1813
11.59	1817
11.6	1798
11.61	1782
11.62	1843
11.63	1904
11.64	1829
11.65	1846
11.66	1856
11.67	1867
11.68	1838
11.69	1869
11.7	1867
11.71	1830
11.72	1866
11.73	1899
11.74	1825
11.75	1821
11.76	1816
11.77	1846
11.78	1802
11.79	1804
11.8	1824
11.81	1815
11.82	1857
11.83	1848
11.84	1878
11.85	1852
11.86	1895
11.87	1814
11.88	1839
11.89	1883
11.9	1891
11.91	1900
11.92	1877
11.93	1849
11.94	1870
11.95	1875
11.96	1823
11.97	1864
11.98	1857
11.99	1874
12.0	1878
12.01	1880
12.02	1885
12.03	1834
12.04	1839
12.05	1848
12.06	1849
12.07	1839
12.08	1831
12.09	1866
12.1	1847
12.11	1904
12.12	1875
12.13	1847
12.14	1859
12.15	1838
12.16	1869
12.17	1868
12.18	1892
12.19	1914
12.2	1909
12.21	1934
12.22	1899
12.23	1908
12.24	1973
12.25	1943
12.26	1895
12.27	1879
12.28	1871
12.29	1906
12.3	1856
12.31	1816
12.32	1867
12.33	1898
12.34	1889
12.35	1897
12.36	1883
12.37	1930
12.38	1914
12.39	1861
12.4	1874
12.41	1935
12.42	1890
12.43	1888
12.44	1922
12.45	1940
12.46	1919
12.47	1864
12.48	1904
12.49	1901
12.5	1911
12.51	1876
12.52	1896
12.53	1904
12.54	1892
12.55	1961
12.56	1973
12.57	1895
12.58	1893
12.59	1953
12.6	1986
12.61	1906
12.62	1955
12.63	1975
12.64	1897
12.65	1939
12.66	1893
12.67	1904
12.68	1959
12.69	1935
12.7	1919
12.71	1956
12.72	1932
12.73	1935
12.74	1914
12.75	1920
12.76	1906
12.77	1902
12.78	1920
12.79	1927
12.8	1938
12.81	1966
12.82	1942
12.83	1998
12.84	1930
12.85	1948
12.86	1950
12.87	1964
12.88	1942
12.89	1967
12.9	1942
12.91	1953
12.92	1956
12.93	1995
12.94	2005
12.95	1987
12.96	1960
12.97	1894
12.98	1869
12.99	1907
13.0	1937
13.01	1953
13.02	1980
13.03	1953
13.04	1904
13.05	1923
13.06	1948
13.07	1972
13.08	1937
13.09	1950
13.1	1978
13.11	1956
13.12	1937
13.13	1944
13.14	1930
13.15	1935
13.16	1951
13.17	1990
13.18	1968
13.19	1953
13.2	1944
13.21	1934
13.22	1962
13.23	1989
13.24	1949
13.25	1970
13.26	2043
13.27	2040
13.28	2005
13.29	1931
13.3	1955
13.31	1947
13.32	1963
13.33	2015
13.34	2038
13.35	1986
13.36	1951
13.37	1959
13.38	1962
13.39	1937
13.4	1953
13.41	1999
13.42	1991
13.43	1996
13.44	2010
13.45	2004
13.46	2010
13.47	1980
13.48	2027
13.49	2009
13.5	1984
13.51	1985
13.52	1952
13.53	1935
13.54	1955
13.55	1993
13.56	1981
13.57	1949
13.58	1966
13.59	1993
13.6	1993
13.61	1981
13.62	2009
13.63	2049
13.64	2007
13.65	1976
13.66	1977
13.67	1980
13.68	1973
13.69	1985
13.7	1958
13.71	2018
13.72	1995
13.73	1955
13.74	2017
13.75	2004
13.76	2001
13.77	2009
13.78	1981
13.79	1997
13.8	2026
13.81	2016
13.82	1993
13.83	1977
13.84	2008
13.85	2031
13.86	2043
13.87	2035
13.88	2051
13.89	2028
13.9	2074
13.91	2058
13.92	2003
13.93	2048
13.94	2002
13.95	2001
13.96	1963
13.97	1980
13.98	1992
13.99	1967
14.0	2005
14.01	2030
14.02	2014
14.03	1991
14.04	2004
14.05	2045
14.06	2042
14.07	2022
14.08	2047
14.09	2004
14.1	2015
14.11	2031
14.12	2035
14.13	2046
14.14	2036
14.15	2006
14.16	2014
14.17	2087
14.18	2043
14.19	2031
14.2	2039
14.21	2063
14.22	2031
14.23	1993
14.24	2034
14.25	2074
14.26	2076
14.27	2080
14.28	2063
14.29	2023
14.3	2023
14.31	2059
14.32	2025
14.33	2038
14.34	2029
14.35	2039
14.36	2043
14.37	2029
14.38	2073
14.39	2066
14.4	2095
14.41	2127
14.42	2138
14.43	2090
14.44	2076
14.45	2051
14.46	2041
14.47	2033
14.48	1994
14.49	2051
14.5	2039
14.51	2001
14.52	1972
14.53	1971
14.54	2001
14.55	2042
14.56	2040
14.57	2020
14.58	2022
14.59	2012
14.6	2031
14.61	2066
14.62	2049
14.63	2031
14.64	2040
14.65	2025
14.66	2037
14.67	2062
14.68	2068
14.69	2032
14.7	2008
14.71	2023
14.72	2054
14.73	2034
14.74	2022
14.75	2044
14.76	2033
14.77	2053
14.78	2031
14.79	2020
14.8	1995
14.81	1962
14.82	1965
14.83	2018
14.84	1994
14.85	2003
14.86	2045
14.87	2043
14.88	2038
14.89	2048
14.9	2043
14.91	2038
14.92	2038
14.93	2054
14.94	2047
14.95	2041
14.96	2071
14.97	2069
14.98	2055
14.99	2065
15.0	2071
15.01	2020
15.02	1994
15.03	2002
15.04	1996
15.05	2018
15.06	2047
15.07	2028
15.08	2027
15.09	2046
15.1	2026
15.11	2014
15.12	2005
15.13	2006
15.14	2012
15.15	2013
15.16	2048
15.17	2041
15.18	2010
15.19	2018
15.2	2010
15.21	1985
15.22	1978
15.23	2013
15.24	2022
15.25	2017
15.26	2023
15.27	2006
15.28	1977
15.29	1978
15.3	1959
15.31	1989
15.32	2010
15.33	2020
15.34	2030
15.35	2022
15.36	1998
15.37	2015
15.38	2034
15.39	2026
15.4	2047
15.41	2030
15.42	2027
15.43	1991
15.44	1989
15.45	2001
15.46	2038
15.47	2041
15.48	1999
15.49	2012
15.5	2047
15.51	2037
15.52	2043
15.53	2028
15.54	2029
15.55	2036
15.56	1995
15.57	1958
15.58	1977
15.59	1981
15.6	1961
15.61	2013
15.62	2016
15.63	2039
15.64	2001
15.65	1984
15.66	1981
15.67	1983
15.68	1976
15.69	2004
15.7	2016
15.71	1978
15.72	1957
15.73	1978
15.74	1994
15.75	1984
15.76	2007
15.77	1992
15.78	1999
15.79	2016
15.8	2011
15.81	1980
15.82	1968
15.83	2014
15.84	2000
15.85	1956
15.86	1950
15.87	1948
15.88	1948
15.89	1966
15.9	1978
15.91	1994
15.92	1974
15.93	1973
15.94	2020
15.95	2036
15.96	2024
15.97	2020
15.98	2005
15.99	1979
16.0	1931
16.01	1925
16.02	1945
16.03	1969
16.04	1975
16.05	1972
16.06	1956
16.07	1927
16.08	1914
16.09	1960
16.1	1986
16.11	1973
16.12	1951
16.13	1973
16.14	1963
16.15	1953
16.16	1937
16.17	1912
16.18	1943
16.19	1971
16.2	1964
16.21	1952
16.22	1931
16.23	1952
16.24	1979
16.25	1984
16.26	1983
16.27	1984
16.28	1969
16.29	2017
16.3	2020
16.31	2013
16.32	2004
16.33	1969
16.34	1947
16.35	1959
16.36	1953
16.37	1947
16.38	1969
16.39	1974
16.4	1983
16.41	1964
16.42	1957
16.43	1969
16.44	1981
16.45	1968
16.46	1960
16.47	1972
16.48	1986
16.49	1979
16.5	1953
16.51	1928
16.52	1955
16.53	2011
16.54	2004
16.55	1947
16.56	1945
16.57	1934
16.58	1911
16.59	1937
16.6	1949
16.61	1942
16.62	1935
16.63	1984
16.64	2001
16.65	1980
16.66	1951
16.67	1940
16.68	1921
16.69	1887
16.7	1887
16.71	1892
16.72	1935
16.73	1985
16.74	1930
16.75	1926
16.76	1973
16.77	1956
16.78	1950
16.79	1982
16.8	1965
16.81	1915
16.82	1911
16.83	1919
16.84	1917
16.85	1923
16.86	1902
16.87	1923
16.88	1962
16.89	1991
16.9	1984
16.91	1970
16.92	1979
16.93	1982
16.94	1957
16.95	1932
16.96	1947
16.97	1988
16.98	1991
16.99	1972
17.0	1975
17.01	1971
17.02	1956
17.03	1948
17.04	1931
17.05	1933
17.06	1950
17.07	1924
17.08	1902
17.09	1911
17.1	1955
17.11	1977
17.12	1932
17.13	1916
17.14	1923
17.15	1907
17.16	1880
17.17	1863
17.18	1892
17.19	1913
17.2	1905
17.21	1932
17.22	1949
17.23	1935
17.24	1950
17.25	1947
17.26	1899
17.27	1889
17.28	1919
17.29	1925
17.3	1894
17.31	1904
17.32	1937
17.33	1956
17.34	1951
17.35	1925
17.36	1928
17.37	1919
17.38	1921
17.39	1949
17.4	1948
17.41	1935
17.42	1900
17.43	1872
17.44	1897
17.45	1916
17.46	1925
17.47	1932
17.48	1935
17.49	1926
17.5	1906
17.51	1916
17.52	1922
17.53	1884
17.54	1881
17.55	1933
17.56	1956
17.57	1931
17.58	1928
17.59	1926
17.6	1888
17.61	1860
17.62	1886
17.63	1932
17.64	1928
17.65	1887
17.66	1903
17.67	1952
17.68	1947
17.69	1915
17.7	1904
17.71	1892
17.72	1870
17.73	1893
17.74	1952
17.75	1972
17.76	1928
17.77	1888
17.78	1869
17.79	1887
17.8	1911
17.81	1926
17.82	1952
17.83	1941
17.84	1905
17.85	1900
17.86	1914
17.87	1906
17.88	1902
17.89	1935
17.9	1921
17.91	1889
17.92	1891
17.93	1885
17.94	1914
17.95	1928
17.96	1888
17.97	1885
17.98	1884
17.99	1847
18.0	1865
18.01	1915
18.02	1903
18.03	1890
18.04	1916
18.05	1911
18.06	1909
18.07	1905
18.08	1902
18.09	1892
18.1	1876
18.11	1864
18.12	1837
18.13	1851
18.14	1911
18.15	1904
18.16	1865
18.17	1876
18.18	1901
18.19	1942
18.2	1943
18.21	1918
18.22	1902
18.23	1884
18.24	1846
18.25	1847
18.26	1874
18.27	1873
18.28	1865
18.29	1854
18.3	1828
18.31	1839
18.32	1893
18.33	1878
18.34	1817
18.35	1808
18.36	1799
18.37	1835
18.38	1923
18.39	1918
18.4	1873
18.41	1879
18.42	1881
18.43	1867
18.44	1903
18.45	1895
18.46	1879
18.47	1897
18.48	1887
18.49	1863
18.5	1858
18.51	1854
18.52	1851
18.53	1859
18.54	1888
18.55	1891
18.56	1911
18.57	1901
18.58	1848
18.59	1848
18.6	1865
18.61	1850
18.62	1881
18.63	1890
18.64	1857
18.65	1829
18.66	1822
18.67	1837
18.68	1861
18.69	1850
18.7	1850
18.71	1861
18.72	1860
18.73	1852
18.74	1840
18.75	1827
18.76	1822
18.77	1851
18.78	1853
18.79	1855
18.8	1834
18.81	1811
18.82	1820
18.83	1870
18.84	1878
18.85	1842
18.86	1817
18.87	1792
18.88	1826
18.89	1896
18.9	1912
18.91	1864
18.92	1812
18.93	1822
18.94	1862
18.95	1883
18.96	1848
18.97	1822
18.98	1816
18.99	1825
19.0	1831
19.01	1811
19.02	1813
19.03	1808
19.04	1813
19.05	1835
19.06	1842
19.07	1850
19.08	1855
19.09	1809
19.1	1783
19.11	1792
19.12	1824
19.13	1829
19.14	1797
19.15	1804
19.16	1842
19.17	1812
19.18	1779
19.19	1809
19.2	1824
19.21	1794
19.22	1815
19.23	1854
19.24	1821
19.25	1768
19.26	1776
19.27	1805
19.28	1817
19.29	1821
19.3	1791
19.31	1775
19.32	1796
19.33	1788
19.34	1770
19.35	1804
19.36	1830
19.37	1828
19.38	1897
19.39	1890
19.4	1831
19.41	1812
19.42	1781
19.43	1786
19.44	1781
19.45	1785
19.46	1791
19.47	1797
19.48	1798
19.49	1822
19.5	1814
19.51	1813
19.52	1768
19.53	1773
19.54	1779
19.55	1791
19.56	1809
19.57	1772
19.58	1779
19.59	1792
19.6	1786
19.61	1775
19.62	1788
19.63	1795
19.64	1790
19.65	1777
19.66	1740
19.67	1763
19.68	1774
19.69	1765
19.7	1753
19.71	1751
19.72	1781
19.73	1801
19.74	1786
19.75	1786
19.76	1806
19.77	1783
19.78	1713
19.79	1731
19.8	1798
19.81	1783
19.82	1739
19.83	1742
19.84	1757
19.85	1744
19.86	1686
19.87	1737
19.88	1764
19.89	1752
19.9	1747
19.91	1779
19.92	1759
19.93	1729
19.94	1695
19.95	1694
19.96	1732
19.97	1757
19.98	1753
19.99	1744
20.0	1724
20.01	1706
20.02	1718
20.03	1764
20.04	1761
20.05	1779
20.06	1774
20.07	1744
20.08	1697
20.09	1677
20.1	1705
20.11	1712
20.12	1704
20.13	1675
20.14	1674
20.15	1703
20.16	1747
20.17	1729
20.18	1721
20.19	1736
20.2	1706
20.21	1660
20.22	1684
20.23	1718
20.24	1731
20.25	1735
20.26	1704
20.27	1677
20.28	1697
20.29	1749
20.3	1778
20.31	1730
20.32	1675
20.33	1680
20.34	1715
20.35	1662
20.36	1664
20.37	1683
20.38	1666
20.39	1658
20.4	1671
20.41	1692
20.42	1697
20.43	1648
20.44	1616
20.45	1651
20.46	1639
20.47	1672
20.48	1682
20.49	1681
20.5	1651
20.51	1625
20.52	1671
20.53	1682
20.54	1689
20.55	1642
20.56	1617
20.57	1693
20.58	1696
20.59	1688
20.6	1695
20.61	1669
20.62	1616
20.63	1629
20.64	1688
20.65	1699
20.66	1699
20.67	1641
20.68	1647
20.69	1656
20.7	1687
20.71	1678
20.72	1673
20.73	1645
20.74	1670
20.75	1675
20.76	1661
20.77	1616
20.78	1642
20.79	1674
20.8	1664
20.81	1651
20.82	1670
20.83	1634
20.84	1652
20.85	1688
20.86	1678
20.87	1687
20.88	1671
20.89	1635
20.9	1662
20.91	1682
20.92	1647
20.93	1646
20.94	1641
20.95	1623
20.96	1627
20.97	1631
20.98	1604
20.99	1607
21.0	1618
21.01	1614
21.02	1590
21.03	1603
21.04	1642
21.05	1600
21.06	1606
21.07	1646
21.08	1632
21.09	1628
21.1	1640
21.11	1627
21.12	1604
21.13	1594
21.14	1602
21.15	1643
21.16	1624
21.17	1648
21.18	1610
21.19	1591
21.2	1613
21.21	1646
21.22	1612
21.23	1618
21.24	1649
21.25	1653
21.26	1630
21.27	1612
21.28	1621
21.29	1637
21.3	1605
21.31	1608
21.32	1616
21.33	1583
21.34	1643
21.35	1598
21.36	1606
21.37	1584
21.38	1570
21.39	1565
21.4	1606
21.41	1614
21.42	1590
21.43	1567
21.44	1601
21.45	1628
21.46	1584
21.47	1589
21.48	1574
21.49	1565
21.5	1604
21.51	1556
21.52	1557
21.53	1549
21.54	1573
21.55	1575
21.56	1601
21.57	1584
21.58	1567
21.59	1570
21.6	1555
21.61	1542
21.62	1549
21.63	1562
21.64	1546
21.65	1589
21.66	1577
21.67	1562
21.68	1522
21.69	1539
21.7	1567
21.71	1573
21.72	1581
21.73	1576
21.74	1581
21.75	1591
21.76	1621
21.77	1612
21.78	1567
21.79	1532
21.8	1596
21.81	1524
21.82	1524
21.83	1552
21.84	1528
21.85	1513
21.86	1554
21.87	1552
21.88	1521
21.89	1537
21.9	1539
21.91	1540
21.92	1555
21.93	1518
21.94	1539
21.95	1540
21.96	1568
21.97	1538
21.98	1540
21.99	1527
22.0	1459
22.01	1501
22.02	1564
22.03	1563
22.04	1519
22.05	1512
22.06	1539
22.07	1532
22.08	1529
22.09	1524
22.1	1542
22.11	1550
22.12	1526
22.13	1473
22.14	1531
22.15	1499
22.16	1516
22.17	1493
22.18	1485
22.19	1564
22.2	1495
22.21	1485
22.22	1551
22.23	1518
22.24	1480
22.25	1473
22.26	1468
22.27	1497
22.28	1532
22.29	1483
22.3	1425
22.31	1452
22.32	1481
22.33	1518
22.34	1488
22.35	1477
22.36	1481
22.37	1502
22.38	1490
22.39	1512
22.4	1490
22.41	1465
22.42	1527
22.43	1476
22.44	1458
22.45	1512
22.46	1517
22.47	1451
22.48	1487
22.49	1510
22.5	1429
22.51	1461
22.52	1498
22.53	1460
22.54	1489
22.55	1513
22.56	1470
22.57	1422
22.58	1473
22.59	1476
22.6	1475
22.61	1435
22.62	1406
22.63	1482
22.64	1459
22.65	1433
22.66	1456
22.67	1470
22.68	1484
22.69	1504
22.7	1452
22.71	1416
22.72	1451
22.73	1441
22.74	1417
22.75	1446
22.76	1454
22.77	1496
22.78	1475
22.79	1377
22.8	1403
22.81	1462
22.82	1459
22.83	1467
22.84	1423
22.85	1429
22.86	1448
22.87	1469
22.88	1434
22.89	1396
22.9	1433
22.91	1429
22.92	1425
22.93	1456
22.94	1454
22.95	1414
22.96	1429
22.97	1429
22.98	1412
22.99	1429
23.0	1430
23.01	1442
23.02	1438
23.03	1452
23.04	1443
23.05	1459
23.06	1379
23.07	1400
23.08	1402
23.09	1438
23.1	1417
23.11	1402
23.12	1430
23.13	1418
23.14	1409
23.15	1402
23.16	1422
23.17	1444
23.18	1446
23.19	1404
23.2	1379
23.21	1406
23.22	1440
23.23	1409
23.24	1382
23.25	1400
23.26	1414
23.27	1391
23.28	1388
23.29	1398
23.3	1377
23.31	1456
23.32	1439
23.33	1409
23.34	1383
23.35	1378
23.36	1404
23.37	1389
23.38	1387
23.39	1424
23.4	1422
23.41	1418
23.42	1443
23.43	1396
23.44	1396
23.45	1391
23.46	1390
23.47	1378
23.48	1350
23.49	1324
23.5	1345
23.51	1429
23.52	1402
23.53	1385
23.54	1388
23.55	1387
23.56	1336
23.57	1279
23.58	1297
23.59	1349
23.6	1348
23.61	1371
23.62	1330
23.63	1361
23.64	1391
23.65	1374
23.66	1369
23.67	1373
23.68	1397
23.69	1382
23.7	1399
23.71	1343
23.72	1333
23.73	1362
23.74	1352
23.75	1406
23.76	1354
23.77	1315
23.78	1328
23.79	1329
23.8	1327
23.81	1318
23.82	1317
23.83	1350
23.84	1358
23.85	1344
23.86	1332
23.87	1305
23.88	1393
23.89	1366
23.9	1331
23.91	1294
23.92	1296
23.93	1304
23.94	1329
23.95	1350
23.96	1382
23.97	1391
23.98	1356
23.99	1324
24.0	1309
24.01	1338
24.02	1367
24.03	1350
24.04	1293
24.05	1304
24.06	1338
24.07	1342
24.08	1364
24.09	1353
24.1	1379
24.11	1359
24.12	1318
24.13	1343
24.14	1329
24.15	1352
24.16	1322
24.17	1280
24.18	1309
24.19	1329
24.2	1333
24.21	1325
24.22	1309
24.23	1313
24.24	1330
24.25	1294
24.26	1277
24.27	1323
24.28	1322
24.29	1347
24.3	1320
24.31	1266
24.32	1275
24.33	1284
24.34	1318
24.35	1324
24.36	1328
24.37	1336
24.38	1334
24.39	1295
24.4	1282
24.41	1298
24.42	1345
24.43	1337
24.44	1296
24.45	1313
24.46	1311
24.47	1270
24.48	1290
24.49	1321
24.5	1310
24.51	1327
24.52	1329
24.53	1295
24.54	1297
24.55	1280
24.56	1311
24.57	1293
24.58	1289
24.59	1284
24.6	1277
24.61	1294
24.62	1288
24.63	1293
24.64	1275
24.65	1286
24.66	1278
24.67	1291
24.68	1277
24.69	1237
24.7	1234
24.71	1266
24.72	1304
24.73	1301
24.74	1276
24.75	1259
24.76	1247
24.77	1254
24.78	1275
24.79	1278
24.8	1264
24.81	1269
24.82	1302
24.83	1286
24.84	1289
24.85	1303
24.86	1277
24.87	1292
24.88	1307
24.89	1265
24.9	1286
24.91	1294
24.92	1295
24.93	1259
24.94	1246
24.95	1268
24.96	1300
24.97	1300
24.98	1280
24.99	1263
25.0	1277
25.01	1289
25.02	1290
25.03	1285
25.04	1286
25.05	1258
25.06	1271
25.07	1314
25.08	1296
25.09	1243
25.1	1251
25.11	1269
25.12	1301
25.13	1296
25.14	1272
25.15	1262
25.16	1287
25.17	1273
25.18	1289
25.19	1276
25.2	1291
25.21	1292
25.22	1256
25.23	1257
25.24	1284
25.25	1288
25.26	1295
25.27	1297
25.28	1280
25.29	1284
25.3	1275
25.31	1265
25.32	1301
25.33	1248
25.34	1250
25.35	1276
25.36	1281
25.37	1248
25.38	1248
25.39	1269
25.4	1262
25.41	1218
25.42	1246
25.43	1257
25.44	1245
25.45	1207
25.46	1195
25.47	1218
25.48	1247
25.49	1243
25.5	1226
25.51	1203
25.52	1196
25.53	1201
25.54	1231
25.55	1261
25.56	1214
25.57	1209
25.58	1230
25.59	1225
25.6	1224
25.61	1227
25.62	1228
25.63	1251
25.64	1254
25.65	1245
25.66	1244
25.67	1247
25.68	1249
25.69	1222
25.7	1211
25.71	1235
25.72	1243
25.73	1235
25.74	1219
25.75	1201
25.76	1181
25.77	1194
25.78	1232
25.79	1236
25.8	1186
25.81	1169
25.82	1180
25.83	1187
25.84	1183
25.85	1170
25.86	1208
25.87	1257
25.88	1243
25.89	1216
25.9	1213
25.91	1188
25.92	1180
25.93	1174
25.94	1180
25.95	1174
25.96	1190
25.97	1213
25.98	1185
25.99	1192
26.0	1243
26.01	1243
26.02	1211
26.03	1209
26.04	1213
26.05	1189
26.06	1179
26.07	1184
26.08	1163
26.09	1175
26.1	1188
26.11	1191
26.12	1200
26.13	1224
26.14	1248
26.15	1225
26.16	1192
26.17	1183
26.18	1154
26.19	1147
26.2	1166
26.21	1196
26.22	1204
26.23	1193
26.24	1155
26.25	1143
26.26	1124
26.27	1132
26.28	1151
26.29	1176
26.3	1176
26.31	1170
26.32	1183
26.33	1189
26.34	1177
26.35	1176
26.36	1174
26.37	1188
26.38	1183
26.39	1178
26.4	1169
26.41	1119
26.42	1141
26.43	1202
26.44	1196
26.45	1170
26.46	1171
26.47	1197
26.48	1209
26.49	1157
26.5	1140
26.51	1170
26.52	1159
26.53	1145
26.54	1171
26.55	1194
26.56	1183
26.57	1169
26.58	1157
26.59	1142
26.6	1136
26.61	1119
26.62	1121
26.63	1141
26.64	1134
26.65	1157
26.66	1182
26.67	1168
26.68	1189
26.69	1189
26.7	1168
26.71	1170
26.72	1174
26.73	1170
26.74	1162
26.75	1146
26.76	1131
26.77	1146
26.78	1157
26.79	1145
26.8	1165
26.81	1180
26.82	1160
26.83	1138
26.84	1144
26.85	1129
26.86	1115
26.87	1110
26.88	1131
26.89	1140
26.9	1131
26.91	1122
26.92	1103
26.93	1120
26.94	1149
26.95	1128
26.96	1120
26.97	1120
26.98	1123
26.99	1141
27.0	1145
27.01	1142
27.02	1144
27.03	1150
27.04	1155
27.05	1129
27.06	1116
27.07	1124
27.08	1093
27.09	1116
27.1	1149
27.11	1133
27.12	1129
27.13	1128
27.14	1135
27.15	1130
27.16	1110
27.17	1115
27.18	1120
27.19	1120
27.2	1121
27.21	1141
27.22	1140
27.23	1119
27.24	1125
27.25	1114
27.26	1081
27.27	1085
27.28	1113
27.29	1098
27.3	1076
27.31	1098
27.32	1098
27.33	1083
27.34	1103
27.35	1118
27.36	1110
27.37	1088
27.38	1085
27.39	1102
27.4	1127
27.41	1148
27.42	1157
27.43	1145
27.44	1128
27.45	1141
27.46	1140
27.47	1110
27.48	1096
27.49	1096
27.5	1121
27.51	1125
27.52	1094
27.53	1087
27.54	1090
27.55	1102
27.56	1099
27.57	1093
27.58	1082
27.59	1064
27.6	1091
27.61	1105
27.62	1092
27.63	1084
27.64	1082
27.65	1094
27.66	1101
27.67	1110
27.68	1108
27.69	1104
27.7	1099
27.71	1099
27.72	1103
27.73	1091
27.74	1101
27.75	1109
27.76	1089
27.77	1062
27.78	1063
27.79	1089
27.8	1135
27.81	1115
27.82	1072
27.83	1059
27.84	1060
27.85	1058
27.86	1067
27.87	1074
27.88	1070
27.89	1100
27.9	1110
27.91	1089
27.92	1090
27.93	1121
27.94	1101
27.95	1079
27.96	1101
27.97	1085
27.98	1082
27.99	1077
28.0	1042
28.01	1051
28.02	1070
28.03	1065
28.04	1075
28.05	1079
28.06	1072
28.07	1083
28.08	1099
28.09	1089
28.1	1083
28.11	1083
28.12	1063
28.13	1048
28.14	1060
28.15	1069
28.16	1053
28.17	1066
28.18	1082
28.19	1100
28.2	1105
28.21	1082
28.22	1066
28.23	1075
28.24	1061
28.25	1066
28.26	1076
28.27	1062
28.28	1053
28.29	1062
28.3	1068
28.31	1071
28.32	1065
28.33	1050
28.34	1042
28.35	1058
28.36	1056
28.37	1063
28.38	1085
28.39	1054
28.4	1033
28.41	1040
28.42	1059
28.43	1056
28.44	1063
28.45	1049
28.46	1051
28.47	1088
28.48	1093
28.49	1077
28.5	1049
28.51	1055
28.52	1061
28.53	1070
28.54	1085
28.55	1070
28.56	1043
28.57	1047
28.58	1049
28.59	1062
28.6	1066
28.61	1075
28.62	1071
28.63	1056
28.64	1044
28.65	1062
28.66	1080
28.67	1059
28.68	1046
28.69	1056
28.7	1067
28.71	1055
28.72	1040
28.73	1037
28.74	1015
28.75	1032
28.76	1034
28.77	1070
28.78	1080
28.79	1046
28.8	1052
28.81	1047
28.82	1056
28.83	1060
28.84	1033
28.85	1012
28.86	1025
28.87	1004
28.88	1007
28.89	1044
28.9	1054
28.91	1053
28.92	1040
28.93	1027
28.94	990
28.95	985
28.96	982
28.97	990
28.98	1042
28.99	1056
29.0	1028
29.01	1018
29.02	1026
29.03	1004
29.04	1007
29.05	997
29.06	989
29.07	1006
29.08	1011
29.09	1038
29.1	1042
29.11	1020
29.12	1002
29.13	1007
29.14	1048
29.15	1034
29.16	987
29.17	1000
29.18	1032
29.19	1048
29.2	1056
29.21	1026
29.22	1056
29.23	1040
29.24	1058
29.25	1061
29.26	1035
29.27	1038
29.28	1018
29.29	1023
29.3	1014
29.31	1002
29.32	972
29.33	981
29.34	989
29.35	1005
29.36	1054
29.37	1050
29.38	1025
29.39	1017
29.4	1027
29.41	1016
29.42	1020
29.43	1007
29.44	1018
29.45	1028
29.46	1005
29.47	994
29.48	988
29.49	1016
29.5	1029
29.51	1018
29.52	984
29.53	1004
29.54	1021
29.55	1023
29.56	1011
29.57	1015
29.58	1024
29.59	1017
29.6	987
29.61	1009
29.62	1021
29.63	1011
29.64	982
29.65	983
29.66	998
29.67	985
29.68	997
29.69	1013
29.7	1005
29.71	1036
29.72	1020
29.73	1031
29.74	1027
29.75	1001
29.76	1019
29.77	1032
29.78	992
29.79	969
29.8	1009
29.81	1045
29.82	1051
29.83	1004
29.84	984
29.85	956
29.86	958
29.87	992
29.88	1000
29.89	966
29.9	977
29.91	999
29.92	979
29.93	957
29.94	957
29.95	965
29.96	977
29.97	966
29.98	969
29.99	1001
30.0	991
30.01	992
30.02	1008
30.03	1017
30.04	991
30.05	959
30.06	965
30.07	1000
30.08	989
30.09	1002
30.1	992
30.11	978
30.12	998
30.13	1038
30.14	1012
30.15	964
30.16	960
30.17	984
30.18	992
30.19	967
30.2	957
30.21	965
30.22	958
30.23	956
30.24	998
30.25	1004
30.26	962
30.27	940
30.28	930
30.29	947
30.3	959
30.31	955
30.32	959
30.33	1001
30.34	1005
30.35	977
30.36	975
30.37	942
30.38	931
30.39	974
30.4	960
30.41	936
30.42	977
30.43	976
30.44	986
30.45	991
30.46	967
30.47	971
30.48	1006
30.49	1018
30.5	963
30.51	909
30.52	917
30.53	951
30.54	970
30.55	989
30.56	978
30.57	951
30.58	923
30.59	946
30.6	977
30.61	988
30.62	946
30.63	946
30.64	968
30.65	980
30.66	987
30.67	982
30.68	949
30.69	952
30.7	948
30.71	955
30.72	978
30.73	988
30.74	976
30.75	955
30.76	952
30.77	968
30.78	933
30.79	928
30.8	945
30.81	956
30.82	942
30.83	937
30.84	953
30.85	989
30.86	942
30.87	963
30.88	987
30.89	957
30.9	989
30.91	967
30.92	937
30.93	952
30.94	960
30.95	957
30.96	923
30.97	953
30.98	969
30.99	952
31.0	946
31.01	958
31.02	981
31.03	919
31.04	941
31.05	986
31.06	974
31.07	960
31.08	967
31.09	935
31.1	929
31.11	938
31.12	971
31.13	956
31.14	936
31.15	953
31.16	971
31.17	970
31.18	929
31.19	941
31.2	950
31.21	924
31.22	927
31.23	920
31.24	932
31.25	925
31.26	905
31.27	954
31.28	940
31.29	925
31.3	936
31.31	941
31.32	924
31.33	914
31.34	926
31.35	916
31.36	961
31.37	1024
31.38	962
31.39	926
31.4	904
31.41	908
31.42	905
31.43	929
31.44	943
31.45	938
31.46	930
31.47	932
31.48	915
31.49	928
31.5	946
31.51	938
31.52	964
31.53	935
31.54	974
31.55	933
31.56	976
31.57	949
31.58	955
31.59	926
31.6	935
31.61	964
31.62	969
31.63	963
31.64	954
31.65	962
31.66	930
31.67	959
31.68	966
31.69	911
31.7	890
31.71	910
31.72	923
31.73	986
31.74	927
31.75	925
31.76	909
31.77	896
31.78	913
31.79	934
31.8	921
31.81	894
31.82	892
31.83	890
31.84	915
31.85	920
31.86	945
31.87	956
31.88	922
31.89	896
31.9	895
31.91	904
31.92	932
31.93	950
31.94	947
31.95	971
31.96	947
31.97	936
31.98	928
31.99	965
32.0	949
32.01	949
32.02	922
32.03	929
32.04	945
32.05	953
32.06	922
32.07	911
32.08	917
32.09	964
32.1	935
32.11	926
32.12	898
32.13	934
32.14	912
32.15	896
32.16	920
32.17	954
32.18	896
32.19	890
32.2	896
32.21	937
32.22	929
32.23	908
32.24	924
32.25	911
32.26	905
32.27	893
32.28	910
32.29	907
32.3	905
32.31	932
32.32	927
32.33	919
32.34	944
32.35	941
32.36	952
32.37	940
32.38	904
32.39	892
32.4	870
32.41	900
32.42	917
32.43	897
32.44	921
32.45	933
32.46	953
32.47	925
32.48	894
32.49	896
32.5	928
32.51	914
32.52	898
32.53	916
32.54	927
32.55	912
32.56	901
32.57	889
32.58	903
32.59	912
32.6	875
32.61	875
32.62	887
32.63	874
32.64	868
32.65	891
32.66	899
32.67	901
32.68	909
32.69	890
32.7	905
32.71	918
32.72	949
32.73	932
32.74	901
32.75	874
32.76	913
32.77	917
32.78	902
32.79	907
32.8	956
32.81	893
32.82	875
32.83	885
32.84	886
32.85	882
32.86	936
32.87	942
32.88	926
32.89	906
32.9	893
32.91	872
32.92	906
32.93	898
32.94	887
32.95	920
32.96	899
32.97	859
32.98	880
32.99	915
33.0	885
33.01	917
33.02	928
33.03	914
33.04	932
33.05	873
33.06	896
33.07	914
33.08	891
33.09	872
33.1	864
33.11	877
33.12	882
33.13	898
33.14	896
33.15	915
33.16	887
33.17	884
33.18	864
33.19	877
33.2	890
33.21	884
33.22	871
33.23	873
33.24	908
33.25	880
33.26	871
33.27	907
33.28	902
33.29	879
33.3	905
33.31	919
33.32	904
33.33	896
33.34	905
33.35	892
33.36	877
33.37	848
33.38	844
33.39	876
33.4	894
33.41	917
33.42	896
33.43	859
33.44	863
33.45	859
33.46	891
33.47	906
33.48	877
33.49	859
33.5	879
33.51	874
33.52	878
33.53	871
33.54	877
33.55	881
33.56	881
33.57	874
33.58	887
33.59	883
33.6	879
33.61	884
33.62	880
33.63	855
33.64	890
33.65	872
33.66	874
33.67	851
33.68	864
33.69	876
33.7	880
33.71	861
33.72	869
33.73	875
33.74	878
33.75	875
33.76	854
33.77	883
33.78	894
33.79	875
33.8	855
33.81	841
33.82	847
33.83	866
33.84	860
33.85	867
33.86	888
33.87	886
33.88	888
33.89	874
33.9	845
33.91	873
33.92	893
33.93	872
33.94	880
33.95	891
33.96	895
33.97	890
33.98	892
33.99	864
34.0	846
34.01	840
34.02	860
34.03	896
34.04	888
34.05	875
34.06	890
34.07	867
34.08	871
34.09	883
34.1	878
34.11	900
34.12	865
34.13	862
34.14	889
34.15	887
34.16	889
34.17	886
34.18	888
34.19	875
34.2	880
34.21	876
34.22	881
34.23	861
34.24	854
34.25	900
34.26	896
34.27	887
34.28	851
34.29	858
34.3	880
34.31	895
34.32	892
34.33	888
34.34	878
34.35	869
34.36	867
34.37	868
34.38	871
34.39	870
34.4	875
34.41	886
34.42	872
34.43	869
34.44	864
34.45	858
34.46	868
34.47	891
34.48	898
34.49	915
34.5	875
34.51	850
34.52	845
34.53	858
34.54	866
34.55	838
34.56	845
34.57	859
34.58	880
34.59	881
34.6	870
34.61	861
34.62	871
34.63	857
34.64	856
34.65	879
34.66	875
34.67	849
34.68	817
34.69	844
34.7	854
34.71	893
34.72	914
34.73	876
34.74	845
34.75	843
34.76	855
34.77	880
34.78	891
34.79	893
34.8	889
34.81	875
34.82	869
34.83	859
34.84	862
34.85	870
34.86	862
34.87	853
34.88	858
34.89	870
34.9	863
34.91	844
34.92	844
34.93	868
34.94	872
34.95	856
34.96	861
34.97	861
34.98	856
34.99	867
35.0	879
35.01	864
35.02	846
35.03	825
35.04	844
35.05	879
35.06	892
35.07	873
35.08	856
35.09	844
35.1	856
35.11	864
35.12	840
35.13	853
35.14	874
35.15	885
35.16	878
35.17	882
35.18	871
35.19	862
35.2	881
35.21	875
35.22	848
35.23	865
35.24	875
35.25	872
35.26	876
35.27	879
35.28	891
35.29	884
35.3	857
35.31	848
35.32	856
35.33	875
35.34	854
35.35	856
35.36	876
35.37	873
35.38	836
35.39	839
35.4	863
35.41	850
35.42	825
35.43	836
35.44	857
35.45	857
35.46	852
35.47	869
35.48	868
35.49	858
35.5	841
35.51	830
35.52	834
35.53	860
35.54	891
35.55	877
35.56	854
35.57	853
35.58	835
35.59	836
35.6	846
35.61	839
35.62	839
35.63	838
35.64	833
35.65	827
35.66	833
35.67	850
35.68	858
35.69	865
35.7	869
35.71	870
35.72	878
35.73	872
35.74	849
35.75	859
35.76	892
35.77	883
35.78	861
35.79	849
35.8	863
35.81	875
35.82	868
35.83	845
35.84	827
35.85	836
35.86	840
35.87	831
35.88	834
35.89	841
35.9	846
35.91	842
35.92	836
35.93	828
35.94	818
35.95	832
35.96	834
35.97	837
35.98	880
35.99	910
36.0	897
36.01	861
36.02	855
36.03	881
36.04	862
36.05	833
36.06	828
36.07	828
36.08	853
36.09	860
36.1	846
36.11	853
36.12	872
36.13	858
36.14	841
36.15	848
36.16	845
36.17	836
36.18	823
36.19	813
36.2	817
36.21	836
36.22	851
36.23	856
36.24	851
36.25	832
36.26	826
36.27	840
36.28	869
36.29	882
36.3	855
36.31	836
36.32	862
36.33	863
36.34	848
36.35	848
36.36	855
36.37	894
36.38	906
36.39	866
36.4	842
36.41	854
36.42	853
36.43	819
36.44	818
36.45	833
36.46	858
36.47	900
36.48	896
36.49	856
36.5	829
36.51	859
36.52	881
36.53	860
36.54	850
36.55	850
36.56	858
36.57	865
36.58	872
36.59	867
36.6	877
36.61	855
36.62	821
36.63	836
36.64	851
36.65	859
36.66	847
36.67	849
36.68	856
36.69	848
36.7	827
36.71	821
36.72	834
36.73	847
36.74	860
36.75	851
36.76	823
36.77	819
36.78	837
36.79	840
36.8	844
36.81	852
36.82	843
36.83	838
36.84	837
36.85	831
36.86	839
36.87	861
36.88	876
36.89	863
36.9	840
36.91	841
36.92	852
36.93	877
36.94	902
36.95	884
36.96	865
36.97	884
36.98	890
36.99	866
37.0	822
37.01	839
37.02	876
37.03	885
37.04	889
37.05	856
37.06	842
37.07	875
37.08	895
37.09	879
37.1	877
37.11	882
37.12	866
37.13	861
37.14	866
37.15	875
37.16	868
37.17	865
37.18	876
37.19	891
37.2	908
37.21	931
37.22	923
37.23	907
37.24	902
37.25	928
37.26	965
37.27	976
37.28	1002
37.29	1040
37.3	1022
37.31	996
37.32	1011
37.33	1077
37.34	1129
37.35	1153
37.36	1160
37.37	1168
37.38	1178
37.39	1190
37.4	1193
37.41	1186
37.42	1170
37.43	1151
37.44	1173
37.45	1186
37.46	1160
37.47	1145
37.48	1142
37.49	1157
37.5	1147
37.51	1158
37.52	1155
37.53	1161
37.54	1149
37.55	1133
37.56	1122
37.57	1143
37.58	1148
37.59	1131
37.6	1105
37.61	1098
37.62	1103
37.63	1146
37.64	1185
37.65	1180
37.66	1149
37.67	1130
37.68	1151
37.69	1126
37.7	1140
37.71	1160
37.72	1175
37.73	1162
37.74	1139
37.75	1105
37.76	1111
37.77	1145
37.78	1163
37.79	1161
37.8	1143
37.81	1147
37.82	1166
37.83	1138
37.84	1098
37.85	1124
37.86	1158
37.87	1160
37.88	1155
37.89	1143
37.9	1158
37.91	1157
37.92	1141
37.93	1152
37.94	1135
37.95	1146
37.96	1165
37.97	1162
37.98	1159
37.99	1176
38.0	1186
38.01	1191
38.02	1200
38.03	1195
38.04	1181
38.05	1193
38.06	1203
38.07	1232
38.08	1269
38.09	1251
38.1	1251
38.11	1237
38.12	1244
38.13	1268
38.14	1302
38.15	1345
38.16	1314
38.17	1316
38.18	1358
38.19	1398
38.2	1450
38.21	1505
38.22	1520
38.23	1498
38.24	1534
38.25	1599
38.26	1650
38.27	1692
38.28	1759
38.29	1854
38.3	1929
38.31	1948
38.32	2023
38.33	2078
38.34	2125
38.35	2191
38.36	2227
38.37	2295
38.38	2349
38.39	2447
38.4	2556
38.41	2648
38.42	2762
38.43	2950
38.44	3240
38.45	3504
38.46	3789
38.47	4269
38.48	4787
38.49	5358
38.5	6087
38.51	6924
38.52	8050
38.53	9262
38.54	10590
38.55	12105
38.56	13885
38.57	16067
38.58	18471
38.59	21081
38.6	23936
38.61	27381
38.62	31200
38.63	35317
38.64	40002
38.65	45023
38.66	50378
38.67	55821
38.68	61121
38.69	65616
38.7	69521
38.71	72171
38.72	73135
38.73	72164
38.74	69130
38.75	64440
38.76	58866
38.77	53098
38.78	47743
38.79	43448
38.8	40220
38.81	37686
38.82	35198
38.83	32560
38.84	29513
38.85	25735
38.86	21374
38.87	16905
38.88	13000
38.89	9979
38.9	7656
38.91	5957
38.92	4778
38.93	4045
38.94	3591
38.95	3256
38.96	2996
38.97	2872
38.98	2761
38.99	2591
39.0	2435
39.01	2423
39.02	2432
39.03	2345
39.04	2190
39.05	2131
39.06	2111
39.07	2063
39.08	2022
39.09	1956
39.1	1892
39.11	1816
39.12	1771
39.13	1731
39.14	1678
39.15	1604
39.16	1544
39.17	1555
39.18	1538
39.19	1486
39.2	1445
39.21	1406
39.22	1359
39.23	1292
39.24	1277
39.25	1279
39.26	1267
39.27	1251
39.28	1241
39.29	1233
39.3	1238
39.31	1239
39.32	1208
39.33	1205
39.34	1185
39.35	1182
39.36	1190
39.37	1183
39.38	1165
39.39	1128
39.4	1143
39.41	1182
39.42	1168
39.43	1107
39.44	1091
39.45	1111
39.46	1136
39.47	1125
39.48	1129
39.49	1139
39.5	1156
39.51	1149
39.52	1109
39.53	1078
39.54	1083
39.55	1094
39.56	1095
39.57	1074
39.58	1068
39.59	1047
39.6	1039
39.61	1063
39.62	1070
39.63	1054
39.64	1042
39.65	1068
39.66	1068
39.67	1064
39.68	1052
39.69	1064
39.7	1042
39.71	1031
39.72	1016
39.73	1052
39.74	1049
39.75	1027
39.76	1056
39.77	1073
39.78	1041
39.79	993
39.8	991
39.81	969
39.82	976
39.83	1021
39.84	1020
39.85	1015
39.86	1004
39.87	1012
39.88	995
39.89	984
39.9	992
39.91	997
39.92	1001
39.93	1033
39.94	1040
39.95	1046
39.96	1052
39.97	972
39.98	978
39.99	1013
40.0	1010
40.01	1002
40.02	993
40.03	975
40.04	942
40.05	948
40.06	973
40.07	996
40.08	1003
40.09	1004
40.1	966
40.11	957
40.12	978
40.13	971
40.14	957
40.15	979
40.16	940
40.17	956
40.18	1011
40.19	1019
40.2	991
40.21	976
40.22	979
40.23	966
40.24	938
40.25	938
40.26	950
40.27	965
40.28	961
40.29	984
40.3	966
40.31	951
40.32	980
40.33	1005
40.34	1006
40.35	973
40.36	933
40.37	945
40.38	968
40.39	969
40.4	936
40.41	962
40.42	1002
40.43	1011
40.44	1047
40.45	1013
40.46	970
40.47	965
40.48	982
40.49	956
40.5	959
40.51	959
40.52	991
40.53	987
40.54	963
40.55	973
40.56	977
40.57	962
40.58	968
40.59	938
40.6	992
40.61	966
40.62	940
40.63	930
40.64	912
40.65	918
40.66	908
40.67	946
40.68	946
40.69	943
40.7	926
40.71	927
40.72	909
40.73	964
40.74	944
40.75	945
40.76	942
40.77	932
40.78	964
40.79	967
40.8	938
40.81	943
40.82	933
40.83	949
40.84	961
40.85	933
40.86	925
40.87	922
40.88	949
40.89	923
40.9	922
40.91	907
40.92	883
40.93	892
40.94	916
40.95	926
40.96	914
40.97	915
40.98	934
40.99	947
41.0	914
41.01	900
41.02	931
41.03	965
41.04	945
41.05	934
41.06	919
41.07	918
41.08	885
41.09	918
41.1	931
41.11	931
41.12	911
41.13	947
41.14	929
41.15	906
41.16	884
41.17	909
41.18	921
41.19	906
41.2	908
41.21	968
41.22	960
41.23	913
41.24	899
41.25	877
41.26	928
41.27	951
41.28	927
41.29	936
41.3	921
41.31	918
41.32	914
41.33	900
41.34	890
41.35	922
41.36	928
41.37	892
41.38	883
41.39	885
41.4	882
41.41	871
41.42	861
41.43	877
41.44	919
41.45	920
41.46	908
41.47	885
41.48	881
41.49	891
41.5	908
41.51	891
41.52	881
41.53	887
41.54	865
41.55	865
41.56	884
41.57	887
41.58	875
41.59	891
41.6	894
41.61	890
41.62	871
41.63	904
41.64	892
41.65	896
41.66	909
41.67	914
41.68	895
41.69	870
41.7	858
41.71	876
41.72	873
41.73	893
41.74	881
41.75	911
41.76	873
41.77	848
41.78	828
41.79	855
41.8	900
41.81	882
41.82	867
41.83	887
41.84	864
41.85	870
41.86	919
41.87	921
41.88	884
41.89	872
41.9	872
41.91	866
41.92	858
41.93	822
41.94	903
41.95	873
41.96	867
41.97	858
41.98	839
41.99	893
42.0	854
42.01	870
42.02	917
42.03	887
42.04	882
42.05	869
42.06	865
42.07	863
42.08	860
42.09	837
42.1	882
42.11	845
42.12	890
42.13	852
42.14	864
42.15	871
42.16	893
42.17	888
42.18	897
42.19	926
42.2	914
42.21	939
42.22	919
42.23	913
42.24	905
42.25	903
42.26	921
42.27	924
42.28	943
42.29	933
42.3	897
42.31	912
42.32	922
42.33	920
42.34	949
42.35	932
42.36	876
42.37	891
42.38	915
42.39	898
42.4	871
42.41	870
42.42	907
42.43	868
42.44	865
42.45	881
42.46	887
42.47	893
42.48	857
42.49	875
42.5	904
42.51	864
42.52	853
42.53	831
42.54	819
42.55	875
42.56	866
42.57	823
42.58	875
42.59	877
42.6	816
42.61	823
42.62	833
42.63	862
42.64	890
42.65	881
42.66	825
42.67	873
42.68	864
42.69	854
42.7	860
42.71	813
42.72	811
42.73	848
42.74	880
42.75	860
42.76	839
42.77	839
42.78	848
42.79	866
42.8	859
42.81	870
42.82	865
42.83	849
42.84	832
42.85	863
42.86	854
42.87	866
42.88	861
42.89	868
42.9	871
42.91	845
42.92	844
42.93	868
42.94	847
42.95	858
42.96	852
42.97	821
42.98	833
42.99	863
43.0	877
43.01	825
43.02	843
43.03	847
43.04	818
43.05	857
43.06	883
43.07	880
43.08	856
43.09	868
43.1	867
43.11	828
43.12	841
43.13	844
43.14	874
43.15	860
43.16	884
43.17	874
43.18	879
43.19	874
43.2	859
43.21	858
43.22	853
43.23	854
43.24	887
43.25	901
43.26	879
43.27	880
43.28	942
43.29	961
43.3	943
43.31	957
43.32	992
43.33	973
43.34	990
43.35	953
43.36	1041
43.37	1123
43.38	1133
43.39	1101
43.4	1134
43.41	1182
43.42	1208
43.43	1199
43.44	1182
43.45	1177
43.46	1167
43.47	1229
43.48	1256
43.49	1264
43.5	1242
43.51	1217
43.52	1223
43.53	1200
43.54	1222
43.55	1216
43.56	1206
43.57	1201
43.58	1168
43.59	1183
43.6	1190
43.61	1207
43.62	1205
43.63	1189
43.64	1186
43.65	1210
43.66	1189
43.67	1186
43.68	1168
43.69	1185
43.7	1178
43.71	1167
43.72	1184
43.73	1196
43.74	1183
43.75	1184
43.76	1208
43.77	1181
43.78	1164
43.79	1182
43.8	1187
43.81	1215
43.82	1237
43.83	1203
43.84	1207
43.85	1206
43.86	1185
43.87	1185
43.88	1193
43.89	1195
43.9	1192
43.91	1169
43.92	1181
43.93	1197
43.94	1195
43.95	1207
43.96	1197
43.97	1202
43.98	1212
43.99	1237
44.0	1194
44.01	1167
44.02	1206
44.03	1259
44.04	1209
44.05	1184
44.06	1237
44.07	1188
44.08	1191
44.09	1175
44.1	1143
44.11	1179
44.12	1211
44.13	1222
44.14	1222
44.15	1215
44.16	1217
44.17	1223
44.18	1230
44.19	1220
44.2	1239
44.21	1276
44.22	1256
44.23	1211
44.24	1241
44.25	1287
44.26	1283
44.27	1234
44.28	1281
44.29	1292
44.3	1314
44.31	1306
44.32	1320
44.33	1307
44.34	1317
44.35	1347
44.36	1337
44.37	1298
44.38	1316
44.39	1367
44.4	1424
44.41	1445
44.42	1455
44.43	1477
44.44	1444
44.45	1455
44.46	1513
44.47	1607
44.48	1601
44.49	1581
44.5	1642
44.51	1677
44.52	1758
44.53	1810
44.54	1893
44.55	1956
44.56	2009
44.57	2107
44.58	2169
44.59	2233
44.6	2361
44.61	2451
44.62	2507
44.63	2571
44.64	2665
44.65	2810
44.66	2883
44.67	3030
44.68	3103
44.69	3172
44.7	3370
44.71	3625
44.72	3870
44.73	4180
44.74	4544
44.75	4950
44.76	5508
44.77	6157
44.78	6967
44.79	7899
44.8	8994
44.81	10334
44.82	11973
44.83	13993
44.84	16157
44.85	18457
44.86	21095
44.87	24131
44.88	27479
44.89	31241
44.9	35611
44.91	40564
44.92	46024
44.93	51937
44.94	58381
44.95	65377
44.96	72330
44.97	78888
44.98	85171
44.99	90546
45.0	94390
45.01	96235
45.02	95880
45.03	93233
45.04	88750
45.05	82470
45.06	75578
45.07	68626
45.08	62884
45.09	58273
45.1	54840
45.11	52254
45.12	50281
45.13	48077
45.14	45431
45.15	41789
45.16	37276
45.17	32389
45.18	26971
45.19	21730
45.2	17377
45.21	13808
45.22	10927
45.23	8745
45.24	7118
45.25	6048
45.26	5372
45.27	4834
45.28	4364
45.29	4019
45.3	3792
45.31	3571
45.32	3360
45.33	3265
45.34	3078
45.35	2891
45.36	2796
45.37	2732
45.38	2634
45.39	2526
45.4	2415
45.41	2327
45.42	2219
45.43	2154
45.44	2070
45.45	1995
45.46	1898
45.47	1817
45.48	1816
45.49	1731
45.5	1710
45.51	1694
45.52	1645
45.53	1573
45.54	1542
45.55	1522
45.56	1455
45.57	1403
45.58	1377
45.59	1365
45.6	1359
45.61	1346
45.62	1346
45.63	1316
45.64	1312
45.65	1313
45.66	1283
45.67	1261
45.68	1322
45.69	1336
45.7	1288
45.71	1223
45.72	1224
45.73	1232
45.74	1212
45.75	1217
45.76	1195
45.77	1186
45.78	1193
45.79	1192
45.8	1186
45.81	1156
45.82	1170
45.83	1187
45.84	1175
45.85	1168
45.86	1172
45.87	1162
45.88	1134
45.89	1127
45.9	1125
45.91	1133
45.92	1116
45.93	1121
45.94	1130
45.95	1102
45.96	1076
45.97	1090
45.98	1099
45.99	1081
46.0	1095
46.01	1116
46.02	1089
46.03	1068
46.04	1082
46.05	1080
46.06	1046
46.07	1050
46.08	1086
46.09	1059
46.1	1033
46.11	1039
46.12	1057
46.13	1056
46.14	1066
46.15	1082
46.16	1064
46.17	1042
46.18	1010
46.19	1011
46.2	1026
46.21	1034
46.22	1013
46.23	1000
46.24	1006
46.25	1009
46.26	1039
46.27	1057
46.28	1035
46.29	1034
46.3	1002
46.31	1009
46.32	1032
46.33	1017
46.34	1024
46.35	1000
46.36	979
46.37	975
46.38	997
46.39	990
46.4	999
46.41	991
46.42	991
46.43	1015
46.44	1028
46.45	1005
46.46	997
46.47	994
46.48	979
46.49	987
46.5	978
46.51	957
46.52	971
46.53	1008
46.54	991
46.55	971
46.56	956
46.57	945
46.58	965
46.59	965
46.6	936
46.61	946
46.62	971
46.63	968
46.64	960
46.65	930
46.66	943
46.67	956
46.68	963
46.69	947
46.7	941
46.71	962
46.72	945
46.73	942
46.74	946
46.75	927
46.76	924
46.77	926
46.78	938
46.79	944
46.8	907
46.81	906
46.82	966
46.83	972
46.84	962
46.85	951
46.86	949
46.87	949
46.88	941
46.89	936
46.9	936
46.91	927
46.92	935
46.93	921
46.94	905
46.95	923
46.96	947
46.97	943
46.98	922
46.99	914
47.0	901
47.01	879
47.02	896
47.03	911
47.04	925
47.05	929
47.06	941
47.07	934
47.08	928
47.09	925
47.1	923
47.11	913
47.12	902
47.13	916
47.14	909
47.15	911
47.16	971
47.17	960
47.18	915
47.19	908
47.2	884
47.21	895
47.22	893
47.23	892
47.24	918
47.25	928
47.26	913
47.27	919
47.28	932
47.29	914
47.3	894
47.31	876
47.32	877
47.33	890
47.34	905
47.35	893
47.36	897
47.37	904
47.38	888
47.39	883
47.4	892
47.41	893
47.42	883
47.43	890
47.44	908
47.45	911
47.46	909
47.47	907
47.48	905
47.49	894
47.5	872
47.51	863
47.52	843
47.53	866
47.54	906
47.55	911
47.56	884
47.57	862
47.58	859
47.59	869
47.6	865
47.61	860
47.62	868
47.63	869
47.64	892
47.65	861
47.66	848
47.67	888
47.68	886
47.69	872
47.7	863
47.71	863
47.72	864
47.73	836
47.74	844
47.75	894
47.76	908
47.77	894
47.78	875
47.79	884
47.8	887
47.81	878
47.82	863
47.83	887
47.84	890
47.85	881
47.86	869
47.87	882
47.88	873
47.89	873
47.9	871
47.91	870
47.92	859
47.93	837
47.94	847
47.95	866
47.96	880
47.97	882
47.98	876
47.99	865
48.0	871
48.01	888
48.02	866
48.03	865
48.04	866
48.05	876
48.06	881
48.07	868
48.08	835
48.09	832
48.1	836
48.11	850
48.12	845
48.13	839
48.14	866
48.15	872
48.16	832
48.17	831
48.18	846
48.19	831
48.2	830
48.21	832
48.22	853
48.23	874
48.24	873
48.25	842
48.26	813
48.27	822
48.28	811
48.29	831
48.3	852
48.31	847
48.32	830
48.33	813
48.34	828
48.35	857
48.36	855
48.37	819
48.38	803
48.39	805
48.4	833
48.41	848
48.42	855
48.43	854
48.44	829
48.45	820
48.46	834
48.47	813
48.48	815
48.49	837
48.5	830
48.51	830
48.52	815
48.53	820
48.54	814
48.55	804
48.56	798
48.57	797
48.58	818
48.59	842
48.6	859
48.61	866
48.62	847
48.63	810
48.64	803
48.65	813
48.66	835
48.67	839
48.68	804
48.69	786
48.7	807
48.71	815
48.72	819
48.73	829
48.74	825
48.75	822
48.76	824
48.77	830
48.78	837
48.79	834
48.8	826
48.81	812
48.82	805
48.83	824
48.84	819
48.85	800
48.86	811
48.87	804
48.88	791
48.89	831
48.9	847
48.91	828
48.92	805
48.93	816
48.94	844
48.95	852
48.96	848
48.97	835
48.98	818
48.99	805
49.0	795
49.01	804
49.02	801
49.03	806
49.04	839
49.05	874
49.06	883
49.07	871
49.08	859
49.09	840
49.1	844
49.11	856
49.12	840
49.13	839
49.14	883
49.15	903
49.16	864
49.17	863
49.18	867
49.19	866
49.2	871
49.21	866
49.22	883
49.23	881
49.24	865
49.25	909
49.26	924
49.27	901
49.28	908
49.29	907
49.3	884
49.31	864
49.32	865
49.33	871
49.34	888
49.35	898
49.36	874
49.37	858
49.38	834
49.39	819
49.4	845
49.41	855
49.42	822
49.43	790
49.44	791
49.45	791
49.46	781
49.47	795
49.48	819
49.49	814
49.5	793
49.51	794
49.52	799
49.53	795
49.54	773
49.55	776
49.56	772
49.57	762
49.58	794
49.59	809
49.6	784
49.61	757
49.62	761
49.63	770
49.64	754
49.65	753
49.66	765
49.67	767
49.68	779
49.69	783
49.7	780
49.71	780
49.72	796
49.73	796
49.74	780
49.75	787
49.76	770
49.77	755
49.78	764
49.79	765
49.8	774
49.81	766
49.82	769
49.83	770
49.84	742
49.85	728
49.86	726
49.87	730
49.88	751
49.89	769
49.9	769
49.91	748
49.92	727
49.93	725
49.94	747
49.95	745
49.96	734
49.97	728
49.98	735
49.99	752
50.0	747
50.01	748
50.02	763
50.03	769
50.04	756
50.05	752
50.06	754
50.07	748
50.08	752
50.09	754
50.1	748
50.11	762
50.12	769
50.13	747
50.14	738
50.15	750
50.16	746
50.17	733
50.18	720
50.19	728
50.2	753
50.21	750
50.22	747
50.23	763
50.24	774
50.25	760
50.26	746
50.27	735
50.28	732
50.29	757
50.3	767
50.31	747
50.32	726
50.33	715
50.34	725
50.35	739
50.36	737
50.37	738
50.38	744
50.39	747
50.4	734
50.41	739
50.42	756
50.43	762
50.44	769
50.45	769
50.46	752
50.47	727
50.48	717
50.49	718
50.5	730
50.51	728
50.52	729
50.53	741
50.54	733
50.55	735
50.56	742
50.57	750
50.58	765
50.59	757
50.6	738
50.61	747
50.62	751
50.63	737
50.64	735
50.65	753
50.66	767
50.67	761
50.68	750
50.69	738
50.7	736
50.71	745
50.72	742
50.73	730
50.74	743
50.75	765
50.76	748
50.77	728
50.78	727
50.79	723
50.8	735
50.81	734
50.82	728
50.83	734
50.84	745
50.85	743
50.86	730
50.87	719
50.88	714
50.89	720
50.9	710
50.91	710
50.92	728
50.93	731
50.94	717
50.95	710
50.96	715
50.97	718
50.98	723
50.99	722
51.0	710
51.01	723
51.02	724
51.03	712
51.04	726
51.05	727
51.06	704
51.07	689
51.08	705
51.09	725
51.1	736
51.11	745
51.12	728
51.13	692
51.14	686
51.15	708
51.16	715
51.17	717
51.18	724
51.19	729
51.2	742
51.21	745
51.22	723
51.23	719
51.24	726
51.25	708
51.26	721
51.27	716
51.28	694
51.29	706
51.3	719
51.31	722
51.32	710
51.33	706
51.34	714
51.35	718
51.36	719
51.37	739
51.38	740
51.39	727
51.4	747
51.41	758
51.42	740
51.43	739
51.44	720
51.45	694
51.46	705
51.47	704
51.48	712
51.49	742
51.5	747
51.51	714
51.52	704
51.53	728
51.54	745
51.55	740
51.56	719
51.57	708
51.58	716
51.59	732
51.6	737
51.61	743
51.62	751
51.63	749
51.64	769
51.65	753
51.66	732
51.67	760
51.68	754
51.69	735
51.7	744
51.71	760
51.72	748
51.73	727
51.74	719
51.75	728
51.76	724
51.77	724
51.78	723
51.79	727
51.8	730
51.81	719
51.82	713
51.83	731
51.84	739
51.85	724
51.86	712
51.87	705
51.88	700
51.89	703
51.9	709
51.91	704
51.92	703
51.93	697
51.94	690
51.95	710
51.96	709
51.97	700
51.98	703
51.99	697
52.0	693
52.01	698
52.02	703
52.03	716
52.04	734
52.05	717
52.06	704
52.07	702
52.08	694
52.09	729
52.1	734
52.11	712
52.12	722
52.13	719
52.14	713
52.15	708
52.16	709
52.17	708
52.18	705
52.19	700
52.2	692
52.21	694
52.22	693
52.23	698
52.24	698
52.25	679
52.26	670
52.27	684
52.28	681
52.29	677
52.3	683
52.31	671
52.32	696
52.33	716
52.34	721
52.35	711
52.36	685
52.37	671
52.38	692
52.39	726
52.4	714
52.41	685
52.42	694
52.43	713
52.44	708
52.45	694
52.46	687
52.47	714
52.48	738
52.49	726
52.5	718
52.51	715
52.52	690
52.53	672
52.54	677
52.55	691
52.56	705
52.57	724
52.58	727
52.59	699
52.6	672
52.61	671
52.62	693
52.63	707
52.64	708
52.65	709
52.66	713
52.67	700
52.68	693
52.69	696
52.7	678
52.71	667
52.72	658
52.73	703
52.74	722
52.75	691
52.76	684
52.77	715
52.78	728
52.79	704
52.8	680
52.81	671
52.82	678
52.83	678
52.84	664
52.85	686
52.86	710
52.87	701
52.88	699
52.89	695
52.9	684
52.91	692
52.92	702
52.93	698
52.94	689
52.95	687
52.96	704
52.97	717
52.98	698
52.99	688
53.0	699
53.01	694
53.02	693
53.03	701
53.04	705
53.05	708
53.06	696
53.07	697
53.08	696
53.09	692
53.1	697
53.11	681
53.12	668
53.13	683
53.14	693
53.15	684
53.16	650
53.17	651
53.18	699
53.19	695
53.2	672
53.21	673
53.22	686
53.23	701
53.24	689
53.25	691
53.26	727
53.27	723
53.28	694
53.29	693
53.3	705
53.31	719
53.32	712
53.33	699
53.34	705
53.35	701
53.36	695
53.37	679
53.38	686
53.39	699
53.4	702
53.41	686
53.42	670
53.43	670
53.44	689
53.45	678
53.46	663
53.47	669
53.48	688
53.49	688
53.5	695
53.51	710
53.52	707
53.53	714
53.54	707
53.55	708
53.56	726
53.57	686
53.58	673
53.59	699
53.6	673
53.61	673
53.62	683
53.63	641
53.64	641
53.65	655
53.66	655
53.67	670
53.68	689
53.69	695
53.7	680
53.71	651
53.72	651
53.73	670
53.74	682
53.75	697
53.76	703
53.77	712
53.78	713
53.79	712
53.8	710
53.81	685
53.82	683
53.83	680
53.84	671
53.85	657
53.86	664
53.87	683
53.88	703
53.89	704
53.9	708
53.91	694
53.92	664
53.93	667
53.94	667
53.95	648
53.96	655
53.97	667
53.98	673
53.99	699
54.0	689
54.01	655
54.02	659
54.03	666
54.04	658
54.05	672
54.06	695
54.07	675
54.08	651
54.09	652
54.1	670
54.11	679
54.12	694
54.13	689
54.14	671
54.15	674
54.16	685
54.17	698
54.18	704
54.19	700
54.2	672
54.21	675
54.22	690
54.23	681
54.24	683
54.25	684
54.26	668
54.27	661
54.28	674
54.29	679
54.3	671
54.31	674
54.32	674
54.33	663
54.34	658
54.35	664
54.36	688
54.37	700
54.38	689
54.39	690
54.4	699
54.41	690
54.42	683
54.43	678
54.44	680
54.45	687
54.46	672
54.47	634
54.48	643
54.49	673
54.5	697
54.51	688
54.52	672
54.53	673
54.54	674
54.55	666
54.56	663
54.57	668
54.58	663
54.59	665
54.6	676
54.61	659
54.62	664
54.63	679
54.64	671
54.65	657
54.66	677
54.67	687
54.68	678
54.69	673
54.7	674
54.71	659
54.72	667
54.73	668
54.74	664
54.75	679
54.76	690
54.77	688
54.78	671
54.79	680
54.8	680
54.81	657
54.82	651
54.83	661
54.84	677
54.85	683
54.86	666
54.87	650
54.88	656
54.89	653
54.9	657
54.91	670
54.92	686
54.93	676
54.94	658
54.95	666
54.96	672
54.97	655
54.98	654
54.99	675
55.0	671
55.01	646
55.02	644
55.03	659
55.04	680
55.05	670
55.06	651
55.07	667
55.08	681
55.09	681
55.1	677
55.11	659
55.12	663
55.13	661
55.14	651
55.15	664
55.16	676
55.17	658
55.18	639
55.19	634
55.2	624
55.21	647
55.22	671
55.23	650
55.24	657
55.25	679
55.26	691
55.27	669
55.28	654
55.29	658
55.3	669
55.31	654
55.32	670
55.33	672
55.34	665
55.35	658
55.36	656
55.37	670
55.38	686
55.39	675
55.4	648
55.41	656
55.42	695
55.43	679
55.44	640
55.45	643
55.46	642
55.47	635
55.48	651
55.49	677
55.5	675
55.51	664
55.52	657
55.53	665
55.54	670
55.55	669
55.56	666
55.57	682
55.58	673
55.59	649
55.6	645
55.61	658
55.62	643
55.63	643
55.64	665
55.65	658
55.66	648
55.67	658
55.68	678
55.69	644
55.7	617
55.71	632
55.72	666
55.73	667
55.74	662
55.75	679
55.76	683
55.77	655
55.78	639
55.79	655
55.8	676
55.81	664
55.82	671
55.83	678
55.84	656
55.85	657
55.86	672
55.87	679
55.88	657
55.89	648
55.9	667
55.91	664
55.92	660
55.93	661
55.94	676
55.95	666
55.96	639
55.97	646
55.98	686
55.99	675
56.0	638
56.01	619
56.02	628
56.03	644
56.04	643
56.05	643
56.06	655
56.07	673
56.08	684
56.09	672
56.1	668
56.11	678
56.12	668
56.13	666
56.14	659
56.15	655
56.16	664
56.17	677
56.18	696
56.19	681
56.2	650
56.21	636
56.22	633
56.23	637
56.24	668
56.25	672
56.26	634
56.27	638
56.28	659
56.29	698
56.3	702
56.31	663
56.32	661
56.33	673
56.34	647
56.35	649
56.36	655
56.37	666
56.38	673
56.39	663
56.4	643
56.41	627
56.42	637
56.43	643
56.44	638
56.45	656
56.46	662
56.47	658
56.48	672
56.49	678
56.5	645
56.51	655
56.52	669
56.53	641
56.54	646
56.55	671
56.56	648
56.57	618
56.58	626
56.59	651
56.6	669
56.61	677
56.62	653
56.63	670
56.64	686
56.65	686
56.66	672
56.67	669
56.68	682
56.69	675
56.7	674
56.71	678
56.72	679
56.73	683
56.74	667
56.75	657
56.76	657
56.77	662
56.78	661
56.79	648
56.8	653
56.81	661
56.82	662
56.83	660
56.84	675
56.85	668
56.86	656
56.87	664
56.88	662
56.89	666
56.9	684
56.91	666
56.92	658
56.93	662
56.94	672
56.95	658
56.96	647
56.97	646
56.98	653
56.99	669
57.0	670
57.01	674
57.02	664
57.03	635
57.04	636
57.05	661
57.06	662
57.07	661
57.08	648
57.09	640
57.1	644
57.11	632
57.12	642
57.13	643
57.14	651
57.15	660
57.16	635
57.17	628
57.18	639
57.19	655
57.2	651
57.21	653
57.22	655
57.23	673
57.24	663
57.25	662
57.26	672
57.27	646
57.28	633
57.29	640
57.3	658
57.31	662
57.32	646
57.33	633
57.34	635
57.35	637
57.36	639
57.37	671
57.38	683
57.39	674
57.4	696
57.41	684
57.42	673
57.43	671
57.44	695
57.45	703
57.46	684
57.47	662
57.48	663
57.49	669
57.5	666
57.51	675
57.52	675
57.53	661
57.54	676
57.55	692
57.56	714
57.57	714
57.58	680
57.59	679
57.6	657
57.61	637
57.62	649
57.63	641
57.64	643
57.65	657
57.66	652
57.67	661
57.68	660
57.69	642
57.7	629
57.71	639
57.72	651
57.73	654
57.74	660
57.75	649
57.76	634
57.77	649
57.78	660
57.79	656
57.8	654
57.81	653
57.82	663
57.83	679
57.84	677
57.85	638
57.86	641
57.87	664
57.88	671
57.89	651
57.9	634
57.91	634
57.92	671
57.93	651
57.94	620
57.95	645
57.96	684
57.97	678
57.98	640
57.99	636
58.0	645
58.01	651
58.02	657
58.03	669
58.04	672
58.05	680
58.06	665
58.07	660
58.08	655
58.09	671
58.1	670
58.11	660
58.12	645
58.13	655
58.14	661
58.15	659
58.16	671
58.17	654
58.18	650
58.19	650
58.2	646
58.21	643
58.22	648
58.23	631
58.24	623
58.25	639
58.26	642
58.27	646
58.28	649
58.29	655
58.3	651
58.31	650
58.32	643
58.33	633
58.34	642
58.35	653
58.36	641
58.37	636
58.38	658
58.39	652
58.4	636
58.41	634
58.42	640
58.43	651
58.44	671
58.45	654
58.46	646
58.47	643
58.48	660
58.49	673
58.5	661
58.51	639
58.52	648
58.53	660
58.54	683
58.55	674
58.56	655
58.57	658
58.58	661
58.59	657
58.6	656
58.61	651
58.62	653
58.63	650
58.64	656
58.65	663
58.66	678
58.67	666
58.68	662
58.69	658
58.7	659
58.71	642
58.72	654
58.73	642
58.74	623
58.75	621
58.76	634
58.77	649
58.78	644
58.79	639
58.8	631
58.81	644
58.82	653
58.83	667
58.84	676
58.85	646
58.86	653
58.87	671
58.88	668
58.89	653
58.9	636
58.91	658
58.92	635
58.93	652
58.94	636
58.95	660
58.96	661
58.97	660
58.98	660
58.99	654
59.0	648
59.01	638
59.02	621
59.03	653
59.04	651
59.05	635
59.06	634
59.07	648
59.08	667
59.09	670
59.1	669
59.11	663
59.12	662
59.13	666
59.14	682
59.15	704
59.16	678
59.17	654
59.18	658
59.19	652
59.2	668
59.21	655
59.22	648
59.23	649
59.24	660
59.25	634
59.26	621
59.27	629
59.28	629
59.29	653
59.3	668
59.31	643
59.32	650
59.33	651
59.34	653
59.35	645
59.36	624
59.37	621
59.38	622
59.39	629
59.4	631
59.41	661
59.42	663
59.43	648
59.44	670
59.45	670
59.46	652
59.47	645
59.48	650
59.49	648
59.5	597
59.51	620
59.52	649
59.53	634
59.54	628
59.55	629
59.56	634
59.57	635
59.58	645
59.59	638
59.6	639
59.61	634
59.62	653
59.63	667
59.64	648
59.65	637
59.66	640
59.67	637
59.68	625
59.69	618
59.7	626
59.71	618
59.72	648
59.73	649
59.74	631
59.75	636
59.76	634
59.77	645
59.78	634
59.79	638
59.8	655
59.81	639
59.82	653
59.83	662
59.84	641
59.85	636
59.86	644
59.87	655
59.88	656
59.89	637
59.9	615
59.91	652
59.92	659
59.93	653
59.94	655
59.95	653
59.96	655
59.97	644
59.98	664
59.99	662
60.0	631
60.01	617
60.02	622
60.03	632
60.04	616
60.05	615
60.06	629
60.07	661
60.08	678
60.09	644
60.1	652
60.11	623
60.12	618
60.13	630
60.14	662
60.15	662
60.16	633
60.17	622
60.18	645
60.19	662
60.2	638
60.21	644
60.22	659
60.23	639
60.24	645
60.25	619
60.26	599
60.27	621
60.28	642
60.29	649
60.3	648
60.31	635
60.32	637
60.33	646
60.34	670
60.35	653
60.36	611
60.37	628
60.38	641
60.39	634
60.4	636
60.41	636
60.42	642
60.43	648
60.44	663
60.45	659
60.46	636
60.47	644
60.48	649
60.49	634
60.5	611
60.51	632
60.52	653
60.53	651
60.54	659
60.55	644
60.56	667
60.57	653
60.58	650
60.59	664
60.6	655
60.61	677
60.62	670
60.63	657
60.64	663
60.65	672
60.66	655
60.67	628
60.68	637
60.69	645
60.7	633
60.71	656
60.72	647
60.73	632
60.74	671
60.75	661
60.76	635
60.77	648
60.78	649
60.79	639
60.8	629
60.81	601
60.82	649
60.83	669
60.84	643
60.85	641
60.86	646
60.87	661
60.88	638
60.89	633
60.9	644
60.91	641
60.92	642
60.93	643
60.94	609
60.95	600
60.96	624
60.97	646
60.98	653
60.99	658
61.0	669
61.01	660
61.02	643
61.03	664
61.04	659
61.05	646
61.06	634
61.07	637
61.08	658
61.09	644
61.1	636
61.11	664
61.12	682
61.13	656
61.14	645
61.15	625
61.16	639
61.17	645
61.18	642
61.19	642
61.2	642
61.21	638
61.22	639
61.23	645
61.24	648
61.25	629
61.26	622
61.27	618
61.28	634
61.29	648
61.3	661
61.31	651
61.32	650
61.33	647
61.34	643
61.35	620
61.36	591
61.37	621
61.38	626
61.39	606
61.4	601
61.41	630
61.42	630
61.43	660
61.44	674
61.45	647
61.46	635
61.47	613
61.48	654
61.49	695
61.5	671
61.51	642
61.52	643
61.53	651
61.54	665
61.55	630
61.56	628
61.57	639
61.58	649
61.59	646
61.6	642
61.61	631
61.62	631
61.63	657
61.64	635
61.65	655
61.66	644
61.67	643
61.68	652
61.69	636
61.7	635
61.71	649
61.72	655
61.73	655
61.74	633
61.75	639
61.76	675
61.77	691
61.78	628
61.79	631
61.8	653
61.81	641
61.82	675
61.83	654
61.84	640
61.85	623
61.86	625
61.87	662
61.88	691
61.89	666
61.9	629
61.91	636
61.92	630
61.93	617
61.94	649
61.95	658
61.96	658
61.97	640
61.98	634
61.99	620
62.0	623
62.01	641
62.02	642
62.03	667
62.04	658
62.05	648
62.06	621
62.07	619
62.08	616
62.09	615
62.1	622
62.11	626
62.12	622
62.13	657
62.14	643
62.15	641
62.16	640
62.17	617
62.18	653
62.19	667
62.2	629
62.21	637
62.22	640
62.23	629
62.24	651
62.25	661
62.26	641
62.27	621
62.28	647
62.29	638
62.3	603
62.31	601
62.32	639
62.33	647
62.34	654
62.35	660
62.36	667
62.37	654
62.38	652
62.39	665
62.4	672
62.41	665
62.42	634
62.43	673
62.44	633
62.45	624
62.46	663
62.47	663
62.48	694
62.49	680
62.5	668
62.51	628
62.52	638
62.53	651
62.54	637
62.55	634
62.56	643
62.57	654
62.58	659
62.59	621
62.6	626
62.61	638
62.62	639
62.63	628
62.64	627
62.65	641
62.66	650
62.67	641
62.68	620
62.69	669
62.7	667
62.71	673
62.72	627
62.73	659
62.74	658
62.75	630
62.76	647
62.77	675
62.78	684
62.79	672
62.8	659
62.81	635
62.82	634
62.83	651
62.84	652
62.85	690
62.86	665
62.87	666
62.88	663
62.89	654
62.9	677
62.91	687
62.92	700
62.93	679
62.94	675
62.95	665
62.96	693
62.97	749
62.98	741
62.99	717
63.0	749
63.01	735
63.02	740
63.03	763
63.04	760
63.05	769
63.06	783
63.07	779
63.08	805
63.09	782
63.1	768
63.11	785
63.12	778
63.13	758
63.14	775
63.15	745
63.16	739
63.17	763
63.18	746
63.19	786
63.2	762
63.21	766
63.22	759
63.23	747
63.24	742
63.25	699
63.26	718
63.27	741
63.28	775
63.29	752
63.3	749
63.31	748
63.32	754
63.33	777
63.34	740
63.35	725
63.36	751
63.37	745
63.38	720
63.39	779
63.4	754
63.41	720
63.42	740
63.43	723
63.44	734
63.45	739
63.46	721
63.47	726
63.48	725
63.49	748
63.5	787
63.51	779
63.52	787
63.53	774
63.54	742
63.55	761
63.56	747
63.57	747
63.58	770
63.59	734
63.6	742
63.61	771
63.62	753
63.63	732
63.64	724
63.65	734
63.66	758
63.67	761
63.68	758
63.69	748
63.7	734
63.71	744
63.72	781
63.73	750
63.74	765
63.75	771
63.76	750
63.77	801
63.78	789
63.79	754
63.8	738
63.81	742
63.82	768
63.83	746
63.84	756
63.85	751
63.86	758
63.87	779
63.88	746
63.89	714
63.9	737
63.91	734
63.92	757
63.93	767
63.94	767
63.95	725
63.96	756
63.97	769
63.98	741
63.99	726
64.0	762
64.01	767
64.02	760
64.03	733
64.04	764
64.05	755
64.06	746
64.07	741
64.08	778
64.09	761
64.1	745
64.11	738
64.12	752
64.13	757
64.14	781
64.15	780
64.16	765
64.17	776
64.18	764
64.19	807
64.2	796
64.21	727
64.22	758
64.23	777
64.24	764
64.25	765
64.26	777
64.27	762
64.28	761
64.29	772
64.3	777
64.31	782
64.32	741
64.33	751
64.34	760
64.35	769
64.36	781
64.37	783
64.38	772
64.39	779
64.4	740
64.41	742
64.42	760
64.43	769
64.44	781
64.45	784
64.46	796
64.47	806
64.48	773
64.49	793
64.5	803
64.51	797
64.52	788
64.53	797
64.54	812
64.55	810
64.56	802
64.57	835
64.58	790
64.59	786
64.6	778
64.61	810
64.62	837
64.63	791
64.64	803
64.65	768
64.66	764
64.67	809
64.68	811
64.69	805
64.7	799
64.71	782
64.72	798
64.73	824
64.74	829
64.75	819
64.76	807
64.77	803
64.78	821
64.79	851
64.8	788
64.81	793
64.82	838
64.83	834
64.84	841
64.85	858
64.86	864
64.87	881
64.88	856
64.89	880
64.9	900
64.91	933
64.92	942
64.93	942
64.94	941
64.95	968
64.96	986
64.97	947
64.98	1013
64.99	1038
65.0	1036
65.01	1091
65.02	1110
65.03	1160
65.04	1153
65.05	1171
65.06	1207
65.07	1266
65.08	1310
65.09	1375
65.1	1392
65.11	1463
65.12	1526
65.13	1574
65.14	1576
65.15	1629
65.16	1637
65.17	1679
65.18	1752
65.19	1793
65.2	1826
65.21	1921
65.22	1988
65.23	2056
65.24	2144
65.25	2277
65.26	2373
65.27	2530
65.28	2731
65.29	2938
65.3	3337
65.31	3731
65.32	4237
65.33	4917
65.34	5770
65.35	6788
65.36	7918
65.37	9228
65.38	10523
65.39	12008
65.4	13670
65.41	15455
65.42	17206
65.43	19040
65.44	21217
65.45	23201
65.46	25704
65.47	27793
65.48	29975
65.49	31800
65.5	33748
65.51	35006
65.52	35532
65.53	35162
65.54	33939
65.55	32060
65.56	29491
65.57	26502
65.58	23480
65.59	20792
65.6	18685
65.61	17286
65.62	16200
65.63	15940
65.64	16065
65.65	16372
65.66	17009
65.67	17467
65.68	17939
65.69	18202
65.7	18345
65.71	18018
65.72	17244
65.73	15904
65.74	14225
65.75	12520
65.76	10641
65.77	8910
65.78	7375
65.79	5982
65.8	4893
65.81	4087
65.82	3442
65.83	2983
65.84	2681
65.85	2408
65.86	2183
65.87	2085
65.88	1940
65.89	1828
65.9	1744
65.91	1668
65.92	1631
65.93	1573
65.94	1463
65.95	1453
65.96	1338
65.97	1296
65.98	1296
65.99	1252
66.0	1207
66.01	1180
66.02	1153
66.03	1147
66.04	1116
66.05	1113
66.06	1084
66.07	1086
66.08	1039
66.09	1032
66.1	1041
66.11	990
66.12	973
66.13	1006
66.14	986
66.15	943
66.16	928
66.17	914
66.18	883
66.19	901
66.2	898
66.21	888
66.22	879
66.23	866
66.24	895
66.25	886
66.26	889
66.27	885
66.28	889
66.29	854
66.3	813
66.31	841
66.32	853
66.33	793
66.34	759
66.35	810
66.36	848
66.37	850
66.38	837
66.39	804
66.4	806
66.41	803
66.42	777
66.43	795
66.44	835
66.45	792
66.46	780
66.47	831
66.48	835
66.49	813
66.5	788
66.51	801
66.52	781
66.53	814
66.54	754
66.55	778
66.56	751
66.57	768
66.58	746
66.59	766
66.6	760
66.61	729
66.62	734
66.63	781
66.64	774
66.65	762
66.66	745
66.67	800
66.68	815
66.69	785
66.7	754
66.71	748
66.72	767
66.73	735
66.74	716
66.75	744
66.76	738
66.77	773
66.78	731
66.79	751
66.8	771
66.81	745
66.82	747
66.83	736
66.84	763
66.85	748
66.86	736
66.87	740
66.88	773
66.89	735
66.9	734
66.91	715
66.92	756
66.93	736
66.94	698
66.95	727
66.96	732
66.97	760
66.98	766
66.99	743
67.0	752
67.01	712
67.02	720
67.03	754
67.04	735
67.05	701
67.06	701
67.07	735
67.08	748
67.09	718
67.1	725
67.11	738
67.12	748
67.13	707
67.14	688
67.15	731
67.16	740
67.17	731
67.18	719
67.19	752
67.2	745
67.21	738
67.22	706
67.23	691
67.24	701
67.25	717
67.26	725
67.27	696
67.28	711
67.29	732
67.3	726
67.31	727
67.32	720
67.33	743
67.34	699
67.35	711
67.36	735
67.37	719
67.38	703
67.39	740
67.4	732
67.41	726
67.42	700
67.43	700
67.44	739
67.45	702
67.46	660
67.47	668
67.48	694
67.49	727
67.5	734
67.51	721
67.52	734
67.53	735
67.54	685
67.55	688
67.56	707
67.57	694
67.58	696
67.59	690
67.6	687
67.61	690
67.62	693
67.63	687
67.64	683
67.65	699
67.66	691
67.67	705
67.68	675
67.69	666
67.7	703
67.71	693
67.72	676
67.73	684
67.74	696
67.75	691
67.76	703
67.77	672
67.78	707
67.79	739
67.8	704
67.81	709
67.82	717
67.83	698
67.84	676
67.85	682
67.86	694
67.87	681
67.88	683
67.89	675
67.9	667
67.91	665
67.92	681
67.93	709
67.94	669
67.95	679
67.96	689
67.97	703
67.98	691
67.99	706
68.0	734
68.01	684
68.02	666
68.03	696
68.04	692
68.05	682
68.06	688
68.07	654
68.08	643
68.09	679
68.1	700
68.11	686
68.12	664
68.13	669
68.14	660
68.15	680
68.16	699
68.17	696
68.18	665
68.19	688
68.2	687
68.21	675
68.22	695
68.23	690
68.24	687
68.25	668
68.26	697
68.27	694
68.28	671
68.29	673
68.3	683
68.31	705
68.32	681
68.33	656
68.34	677
68.35	673
68.36	683
68.37	680
68.38	682
68.39	701
68.4	711
68.41	706
68.42	698
68.43	670
68.44	693
68.45	693
68.46	706
68.47	678
68.48	639
68.49	676
68.5	689
68.51	704
68.52	711
68.53	671
68.54	667
68.55	679
68.56	693
68.57	679
68.58	669
68.59	691
68.6	717
68.61	691
68.62	652
68.63	659
68.64	684
68.65	682
68.66	683
68.67	661
68.68	695
68.69	687
68.7	660
68.71	663
68.72	651
68.73	657
68.74	668
68.75	654
68.76	645
68.77	668
68.78	658
68.79	677
68.8	703
68.81	680
68.82	657
68.83	674
68.84	677
68.85	667
68.86	661
68.87	616
68.88	643
68.89	626
68.9	666
68.91	661
68.92	665
68.93	652
68.94	640
68.95	662
68.96	694
68.97	714
68.98	680
68.99	679
69.0	654
69.01	678
69.02	674
69.03	667
69.04	643
69.05	620
69.06	643
69.07	661
69.08	685
69.09	689
69.1	652
69.11	684
69.12	688
69.13	671
69.14	673
69.15	680
69.16	686
69.17	671
69.18	642
69.19	648
69.2	676
69.21	656
69.22	649
69.23	668
69.24	659
69.25	635
69.26	653
69.27	648
69.28	689
69.29	659
69.3	669
69.31	682
69.32	640
69.33	645
69.34	667
69.35	659
69.36	630
69.37	666
69.38	663
69.39	643
69.4	656
69.41	663
69.42	720
69.43	677
69.44	662
69.45	627
69.46	662
69.47	656
69.48	670
69.49	642
69.5	641
69.51	663
69.52	669
69.53	662
69.54	691
69.55	679
69.56	697
69.57	686
69.58	663
69.59	681
69.6	707
69.61	664
69.62	665
69.63	668
69.64	664
69.65	653
69.66	687
69.67	660
69.68	670
69.69	686
69.7	660
69.71	637
69.72	623
69.73	614
69.74	645
69.75	639
69.76	667
69.77	681
69.78	669
69.79	655
69.8	684
69.81	674
69.82	644
69.83	646
69.84	650
69.85	629
69.86	620
69.87	643
69.88	635
69.89	664
69.9	660
69.91	646
69.92	649
69.93	607
69.94	659
69.95	652
69.96	614
69.97	650
69.98	655
69.99	648
70.0	660
70.01	670
70.02	656
70.03	639
70.04	638
70.05	652
70.06	656
70.07	650
70.08	655
70.09	680
70.1	677
70.11	683
70.12	660
70.13	684
70.14	653
70.15	639
70.16	629
70.17	640
70.18	634
70.19	647
70.2	675
70.21	676
70.22	642
70.23	632
70.24	638
70.25	660
70.26	694
70.27	648
70.28	602
70.29	610
70.3	636
70.31	664
70.32	665
70.33	655
70.34	626
70.35	616
70.36	638
70.37	625
70.38	640
70.39	660
70.4	619
70.41	646
70.42	664
70.43	661
70.44	637
70.45	631
70.46	634
70.47	624
70.48	619
70.49	655
70.5	628
70.51	591
70.52	616
70.53	638
70.54	654
70.55	666
70.56	678
70.57	654
70.58	618
70.59	616
70.6	635
70.61	667
70.62	661
70.63	617
70.64	625
70.65	642
70.66	640
70.67	639
70.68	624
70.69	647
70.7	631
70.71	634
70.72	644
70.73	643
70.74	651
70.75	658
70.76	646
70.77	623
70.78	629
70.79	644
70.8	651
70.81	660
70.82	640
70.83	623
70.84	635
70.85	636
70.86	634
70.87	632
70.88	636
70.89	612
70.9	619
70.91	619
70.92	603
70.93	613
70.94	651
70.95	624
70.96	652
70.97	628
70.98	657
70.99	642
71.0	629
71.01	619
71.02	641
71.03	654
71.04	640
71.05	631
71.06	636
71.07	641
71.08	620
71.09	612
71.1	601
71.11	630
71.12	665
71.13	643
71.14	638
71.15	596
71.16	615
71.17	630
71.18	621
71.19	607
71.2	634
71.21	615
71.22	603
71.23	618
71.24	620
71.25	630
71.26	624
71.27	648
71.28	665
71.29	644
71.3	612
71.31	627
71.32	683
71.33	670
71.34	658
71.35	640
71.36	652
71.37	635
71.38	609
71.39	642
71.4	612
71.41	607
71.42	605
71.43	600
71.44	640
71.45	644
71.46	647
71.47	638
71.48	639
71.49	648
71.5	630
71.51	595
71.52	614
71.53	619
71.54	630
71.55	620
71.56	602
71.57	628
71.58	628
71.59	686
71.6	666
71.61	646
71.62	628
71.63	620
71.64	637
71.65	621
71.66	602
71.67	605
71.68	642
71.69	648
71.7	624
71.71	642
71.72	635
71.73	638
71.74	651
71.75	663
71.76	630
71.77	636
71.78	611
71.79	592
71.8	624
71.81	655
71.82	643
71.83	636
71.84	607
71.85	631
71.86	639
71.87	632
71.88	602
71.89	614
71.9	621
71.91	600
71.92	602
71.93	649
71.94	649
71.95	616
71.96	616
71.97	609
71.98	647
71.99	644
72.0	614
72.01	612
72.02	624
72.03	637
72.04	646
72.05	637
72.06	603
72.07	606
72.08	593
72.09	642
72.1	670
72.11	631
72.12	620
72.13	625
72.14	628
72.15	608
72.16	619
72.17	633
72.18	642
72.19	627
72.2	639
72.21	635
72.22	637
72.23	634
72.24	644
72.25	649
72.26	649
72.27	643
72.28	631
72.29	629
72.3	642
72.31	599
72.32	623
72.33	644
72.34	636
72.35	604
72.36	590
72.37	642
72.38	641
72.39	624
72.4	624
72.41	609
72.42	595
72.43	592
72.44	616
72.45	625
72.46	630
72.47	599
72.48	593
72.49	629
72.5	625
72.51	641
72.52	625
72.53	603
72.54	602
72.55	618
72.56	607
72.57	589
72.58	582
72.59	621
72.6	623
72.61	617
72.62	616
72.63	619
72.64	581
72.65	621
72.66	634
72.67	631
72.68	626
72.69	625
72.7	614
72.71	618
72.72	625
72.73	631
72.74	591
72.75	573
72.76	593
72.77	623
72.78	639
72.79	627
72.8	613
72.81	584
72.82	591
72.83	619
72.84	605
72.85	599
72.86	586
72.87	594
72.88	605
72.89	606
72.9	605
72.91	626
72.92	601
72.93	594
72.94	603
72.95	588
72.96	593
72.97	594
72.98	619
72.99	621
73.0	632
73.01	620
73.02	609
73.03	655
73.04	644
73.05	599
73.06	615
73.07	612
73.08	591
73.09	606
73.1	602
73.11	620
73.12	602
73.13	598
73.14	626
73.15	620
73.16	604
73.17	594
73.18	571
73.19	609
73.2	605
73.21	582
73.22	592
73.23	618
73.24	584
73.25	579
73.26	585
73.27	569
73.28	576
73.29	566
73.3	585
73.31	600
73.32	618
73.33	610
73.34	584
73.35	594
73.36	588
73.37	606
73.38	615
73.39	591
73.4	610
73.41	600
73.42	567
73.43	600
73.44	608
73.45	593
73.46	586
73.47	610
73.48	590
73.49	595
73.5	602
73.51	639
73.52	601
73.53	613
73.54	624
73.55	609
73.56	574
73.57	597
73.58	591
73.59	571
73.6	592
73.61	600
73.62	560
73.63	544
73.64	594
73.65	600
73.66	594
73.67	608
73.68	603
73.69	572
73.7	586
73.71	618
73.72	585
73.73	588
73.74	606
73.75	638
73.76	620
73.77	617
73.78	633
73.79	605
73.8	600
73.81	586
73.82	575
73.83	582
73.84	576
73.85	569
73.86	591
73.87	599
73.88	585
73.89	617
73.9	602
73.91	617
73.92	591
73.93	570
73.94	584
73.95	620
73.96	597
73.97	567
73.98	595
73.99	597
74.0	604
74.01	634
74.02	620
74.03	588
74.04	599
74.05	598
74.06	601
74.07	571
74.08	568
74.09	579
74.1	603
74.11	596
74.12	569
74.13	565
74.14	608
74.15	600
74.16	566
74.17	549
74.18	574
74.19	591
74.2	612
74.21	608
74.22	579
74.23	590
74.24	596
74.25	599
74.26	574
74.27	599
74.28	609
74.29	603
74.3	578
74.31	563
74.32	590
74.33	601
74.34	582
74.35	593
74.36	586
74.37	588
74.38	580
74.39	571
74.4	576
74.41	575
74.42	588
74.43	576
74.44	579
74.45	584
74.46	576
74.47	578
74.48	591
74.49	602
74.5	577
74.51	578
74.52	579
74.53	591
74.54	600
74.55	606
74.56	584
74.57	581
74.58	564
74.59	594
74.6	609
74.61	591
74.62	583
74.63	559
74.64	578
74.65	603
74.66	597
74.67	583
74.68	540
74.69	549
74.7	590
74.71	589
74.72	618
74.73	568
74.74	557
74.75	592
74.76	578
74.77	575
74.78	596
74.79	609
74.8	611
74.81	562
74.82	567
74.83	599
74.84	596
74.85	562
74.86	575
74.87	570
74.88	575
74.89	574
74.9	568
74.91	574
74.92	593
74.93	596
74.94	578
74.95	564
74.96	602
74.97	598
74.98	603
74.99	571
75.0	566
75.01	560
75.02	558
75.03	574
75.04	588
75.05	609
75.06	621
75.07	599
75.08	594
75.09	592
75.1	582
75.11	587
75.12	577
75.13	570
75.14	597
75.15	593
75.16	572
75.17	580
75.18	587
75.19	581
75.2	572
75.21	573
75.22	583
75.23	589
75.24	616
75.25	568
75.26	593
75.27	602
75.28	580
75.29	582
75.3	590
75.31	576
75.32	571
75.33	564
75.34	558
75.35	562
75.36	562
75.37	568
75.38	593
75.39	594
75.4	577
75.41	590
75.42	577
75.43	567
75.44	580
75.45	575
75.46	574
75.47	603
75.48	603
75.49	598
75.5	575
75.51	575
75.52	588
75.53	560
75.54	547
75.55	598
75.56	620
75.57	611
75.58	597
75.59	584
75.6	553
75.61	587
75.62	599
75.63	594
75.64	568
75.65	616
75.66	619
75.67	579
75.68	576
75.69	565
75.7	581
75.71	600
75.72	587
75.73	585
75.74	597
75.75	578
75.76	598
75.77	603
75.78	589
75.79	582
75.8	616
75.81	600
75.82	569
75.83	603
75.84	607
75.85	589
75.86	552
75.87	578
75.88	572
75.89	569
75.9	592
75.91	603
75.92	572
75.93	579
75.94	592
75.95	608
75.96	623
75.97	628
75.98	578
75.99	559
76.0	593
76.01	603
76.02	601
76.03	627
76.04	618
76.05	581
76.06	588
76.07	586
76.08	618
76.09	608
76.1	610
76.11	588
76.12	608
76.13	589
76.14	595
76.15	587
76.16	601
76.17	600
76.18	581
76.19	578
76.2	595
76.21	561
76.22	587
76.23	584
76.24	617
76.25	621
76.26	634
76.27	605
76.28	564
76.29	592
76.3	591
76.31	579
76.32	592
76.33	590
76.34	584
76.35	581
76.36	589
76.37	581
76.38	555
76.39	560
76.4	568
76.41	607
76.42	622
76.43	602
76.44	584
76.45	590
76.46	583
76.47	577
76.48	573
76.49	549
76.5	575
76.51	594
76.52	580
76.53	613
76.54	589
76.55	569
76.56	552
76.57	570
76.58	579
76.59	560
76.6	567
76.61	582
76.62	600
76.63	555
76.64	549
76.65	606
76.66	612
76.67	606
76.68	582
76.69	561
76.7	571
76.71	606
76.72	589
76.73	585
76.74	621
76.75	589
76.76	578
76.77	583
76.78	596
76.79	582
76.8	587
76.81	599
76.82	596
76.83	613
76.84	608
76.85	582
76.86	569
76.87	548
76.88	587
76.89	585
76.9	610
76.91	584
76.92	584
76.93	596
76.94	597
76.95	593
76.96	599
76.97	589
76.98	584
76.99	584
77.0	587
77.01	597
77.02	570
77.03	579
77.04	592
77.05	587
77.06	578
77.07	601
77.08	588
77.09	573
77.1	578
77.11	605
77.12	596
77.13	605
77.14	603
77.15	584
77.16	596
77.17	585
77.18	556
77.19	559
77.2	560
77.21	581
77.22	606
77.23	614
77.24	601
77.25	585
77.26	573
77.27	578
77.28	569
77.29	585
77.3	588
77.31	609
77.32	598
77.33	596
77.34	600
77.35	579
77.36	590
77.37	591
77.38	607
77.39	570
77.4	578
77.41	583
77.42	585
77.43	567
77.44	571
77.45	592
77.46	571
77.47	568
77.48	585
77.49	570
77.5	568
77.51	572
77.52	547
77.53	580
77.54	601
77.55	598
77.56	615
77.57	599
77.58	593
77.59	576
77.6	580
77.61	584
77.62	601
77.63	597
77.64	593
77.65	589
77.66	580
77.67	581
77.68	587
77.69	605
77.7	621
77.71	610
77.72	621
77.73	583
77.74	597
77.75	604
77.76	576
77.77	601
77.78	589
77.79	593
77.8	586
77.81	601
77.82	592
77.83	590
77.84	579
77.85	619
77.86	619
77.87	575
77.88	567
77.89	586
77.9	602
77.91	608
77.92	581
77.93	599
77.94	609
77.95	591
77.96	610
77.97	599
77.98	586
77.99	599
78.0	570
78.01	600
78.02	615
78.03	608
78.04	598
78.05	600
78.06	621
78.07	631
78.08	608
78.09	611
78.1	624
78.11	598
78.12	627
78.13	629
78.14	630
78.15	640
78.16	624
78.17	640
78.18	662
78.19	626
78.2	625
78.21	648
78.22	690
78.23	651
78.24	641
78.25	684
78.26	715
78.27	702
78.28	716
78.29	736
78.3	719
78.31	740
78.32	750
78.33	750
78.34	766
78.35	778
78.36	807
78.37	805
78.38	779
78.39	782
78.4	804
78.41	822
78.42	841
78.43	880
78.44	894
78.45	882
78.46	888
78.47	944
78.48	953
78.49	972
78.5	1008
78.51	1100
78.52	1118
78.53	1156
78.54	1276
78.55	1424
78.56	1550
78.57	1721
78.58	2017
78.59	2285
78.6	2525
78.61	2874
78.62	3272
78.63	3645
78.64	4055
78.65	4514
78.66	5036
78.67	5485
78.68	5892
78.69	6397
78.7	6831
78.71	7298
78.72	7816
78.73	8159
78.74	8228
78.75	8354
78.76	8455
78.77	8215
78.78	7760
78.79	7272
78.8	6674
78.81	5952
78.82	5315
78.83	4686
78.84	4195
78.85	3891
78.86	3704
78.87	3548
78.88	3475
78.89	3537
78.9	3580
78.91	3696
78.92	3828
78.93	3989
78.94	4192
78.95	4391
78.96	4505
78.97	4624
78.98	4660
78.99	4580
79.0	4418
79.01	4218
79.02	4001
79.03	3643
79.04	3325
79.05	2959
79.06	2585
79.07	2242
79.08	1932
79.09	1723
79.1	1513
79.11	1351
79.12	1225
79.13	1152
79.14	1070
79.15	993
79.16	906
79.17	884
79.18	868
79.19	823
79.2	782
79.21	770
79.22	754
79.23	758
79.24	752
79.25	735
79.26	738
79.27	730
79.28	722
79.29	732
79.3	740
79.31	696
79.32	682
79.33	677
79.34	653
79.35	656
79.36	668
79.37	665
79.38	659
79.39	663
79.4	629
79.41	623
79.42	579
79.43	605
79.44	612
79.45	628
79.46	638
79.47	624
79.48	618
79.49	622
79.5	616
79.51	604
79.52	608
79.53	595
79.54	597
79.55	606
79.56	592
79.57	604
79.58	603
79.59	606
79.6	622
79.61	620
79.62	608
79.63	609
79.64	604
79.65	609
79.66	636
79.67	610
79.68	604
79.69	615
79.7	607
79.71	600
79.72	598
79.73	603
79.74	580
79.75	591
79.76	608
79.77	608
79.78	621
79.79	620
79.8	615
79.81	610
79.82	635
79.83	617
79.84	579
79.85	589
79.86	612
79.87	583
79.88	594
79.89	615
79.9	612
79.91	606
79.92	618
79.93	617
79.94	615
79.95	592
79.96	612
79.97	607
79.98	601
79.99	587
80.0	581
80.01	591
80.02	586
80.03	574
80.04	590
80.05	574
80.06	578
80.07	599
80.08	596
80.09	593
80.1	583
80.11	587
80.12	574
80.13	592
80.14	572
80.15	549
80.16	575
80.17	583
80.18	570
80.19	576
80.2	604
80.21	599
80.22	573
80.23	548
80.24	555
80.25	580
80.26	594
80.27	589
80.28	601
80.29	590
80.3	598
80.31	595
80.32	590
80.33	601
80.34	562
80.35	528
80.36	568
80.37	573
80.38	578
80.39	573
80.4	561
80.41	547
80.42	532
80.43	558
80.44	574
80.45	590
80.46	582
80.47	586
80.48	574
80.49	561
80.5	550
80.51	578
80.52	592
80.53	567
80.54	560
80.55	563
80.56	570
80.57	558
80.58	548
80.59	560
80.6	556
80.61	563
80.62	583
80.63	598
80.64	571
80.65	586
80.66	596
80.67	576
80.68	586
80.69	593
80.7	605
80.71	585
80.72	558
80.73	540
80.74	525
80.75	557
80.76	570
80.77	570
80.78	547
80.79	556
80.8	552
80.81	562
80.82	578
80.83	554
80.84	555
80.85	551
80.86	570
80.87	566
80.88	557
80.89	546
80.9	554
80.91	564
80.92	576
80.93	584
80.94	573
80.95	551
80.96	578
80.97	578
80.98	590
80.99	612
81.0	590
81.01	561
81.02	557
81.03	592
81.04	579
81.05	572
81.06	579
81.07	574
81.08	553
81.09	559
81.1	555
81.11	551
81.12	586
81.13	564
81.14	552
81.15	581
81.16	573
81.17	545
81.18	542
81.19	556
81.2	562
81.21	574
81.22	555
81.23	547
81.24	576
81.25	602
81.26	581
81.27	559
81.28	556
81.29	536
81.3	555
81.31	562
81.32	550
81.33	560
81.34	543
81.35	549
81.36	552
81.37	512
81.38	540
81.39	558
81.4	566
81.41	597
81.42	624
81.43	597
81.44	581
81.45	575
81.46	578
81.47	583
81.48	561
81.49	547
81.5	570
81.51	592
81.52	583
81.53	559
81.54	567
81.55	541
81.56	543
81.57	580
81.58	568
81.59	557
81.6	552
81.61	586
81.62	570
81.63	535
81.64	554
81.65	557
81.66	575
81.67	581
81.68	565
81.69	575
81.7	587
81.71	576
81.72	564
81.73	568
81.74	586
81.75	567
81.76	546
81.77	565
81.78	550
81.79	559
81.8	559
81.81	533
81.82	565
81.83	581
81.84	574
81.85	560
81.86	583
81.87	584
81.88	584
81.89	598
81.9	583
81.91	581
81.92	566
81.93	583
81.94	594
81.95	564
81.96	571
81.97	578
81.98	579
81.99	575
82.0	599
82.01	553
82.02	562
82.03	603
82.04	600
82.05	578
82.06	568
82.07	582
82.08	576
82.09	587
82.1	572
82.11	569
82.12	583
82.13	582
82.14	567
82.15	552
82.16	583
82.17	564
82.18	583
82.19	592
82.2	594
82.21	602
82.22	580
82.23	567
82.24	575
82.25	580
82.26	578
82.27	589
82.28	602
82.29	589
82.3	572
82.31	588
82.32	602
82.33	597
82.34	588
82.35	584
82.36	600
82.37	606
82.38	630
82.39	631
82.4	592
82.41	609
82.42	639
82.43	620
82.44	608
82.45	640
82.46	654
82.47	685
82.48	719
82.49	695
82.5	688
82.51	710
82.52	712
82.53	701
82.54	709
82.55	738
82.56	745
82.57	770
82.58	758
82.59	742
82.6	783
82.61	820
82.62	784
82.63	779
82.64	792
82.65	805
82.66	787
82.67	793
82.68	842
82.69	860
82.7	846
82.71	858
82.72	885
82.73	918
82.74	957
82.75	983
82.76	1024
82.77	1083
82.78	1157
82.79	1282
82.8	1419
82.81	1552
82.82	1734
82.83	1927
82.84	2215
82.85	2600
82.86	2942
82.87	3327
82.88	3785
82.89	4310
82.9	4817
82.91	5275
82.92	5833
82.93	6295
82.94	6654
82.95	7148
82.96	7670
82.97	8147
82.98	8470
82.99	8691
83.0	8649
83.01	8441
83.02	8123
83.03	7693
83.04	6960
83.05	6148
83.06	5376
83.07	4744
83.08	4193
83.09	3718
83.1	3391
83.11	3220
83.12	3146
83.13	3134
83.14	3105
83.15	3220
83.16	3359
83.17	3516
83.18	3659
83.19	3880
83.2	4126
83.21	4329
83.22	4476
83.23	4656
83.24	4791
83.25	4747
83.26	4637
83.27	4489
83.28	4143
83.29	3857
83.3	3481
83.31	3042
83.32	2729
83.33	2421
83.34	2097
83.35	1738
83.36	1507
83.37	1401
83.38	1255
83.39	1125
83.4	1056
83.41	994
83.42	968
83.43	909
83.44	860
83.45	822
83.46	790
83.47	796
83.48	740
83.49	742
83.5	744
83.51	723
83.52	705
83.53	717
83.54	724
83.55	727
83.56	708
83.57	694
83.58	685
83.59	678
83.6	672
83.61	664
83.62	680
83.63	672
83.64	663
83.65	634
83.66	642
83.67	612
83.68	627
83.69	628
83.7	599
83.71	610
83.72	625
83.73	622
83.74	606
83.75	576
83.76	566
83.77	590
83.78	600
83.79	596
83.8	590
83.81	579
83.82	590
83.83	601
83.84	578
83.85	578
83.86	572
83.87	574
83.88	606
83.89	596
83.9	589
83.91	580
83.92	599
83.93	581
83.94	580
83.95	568
83.96	551
83.97	562
83.98	577
83.99	570
84.0	579
84.01	567
84.02	547
84.03	566
84.04	566
84.05	541
84.06	567
84.07	590
84.08	564
84.09	564
84.1	524
84.11	558
84.12	564
84.13	570
84.14	566
84.15	573
84.16	549
84.17	543
84.18	537
84.19	554
84.2	570
84.21	568
84.22	569
84.23	567
84.24	557
84.25	549
84.26	551
84.27	532
84.28	526
84.29	550
84.3	541
84.31	548
84.32	549
84.33	562
84.34	553
84.35	545
84.36	532
84.37	539
84.38	539
84.39	546
84.4	527
84.41	533
84.42	559
84.43	558
84.44	555
84.45	565
84.46	555
84.47	544
84.48	535
84.49	527
84.5	542
84.51	545
84.52	544
84.53	549
84.54	570
84.55	543
84.56	536
84.57	548
84.58	544
84.59	535
84.6	534
84.61	577
84.62	571
84.63	542
84.64	538
84.65	541
84.66	537
84.67	510
84.68	509
84.69	552
84.7	557
84.71	558
84.72	556
84.73	532
84.74	525
84.75	527
84.76	553
84.77	544
84.78	548
84.79	577
84.8	535
84.81	518
84.82	514
84.83	532
84.84	537
84.85	520
84.86	531
84.87	542
84.88	546
84.89	555
84.9	546
84.91	542
84.92	517
84.93	522
84.94	527
84.95	521
84.96	523
84.97	522
84.98	539
84.99	544
85.0	531
85.01	537
85.02	546
85.03	538
85.04	517
85.05	524
85.06	535
85.07	535
85.08	517
85.09	518
85.1	547
85.11	544
85.12	542
85.13	544
85.14	553
85.15	536
85.16	541
85.17	544
85.18	542
85.19	541
85.2	542
85.21	535
85.22	540
85.23	544
85.24	545
85.25	545
85.26	528
85.27	514
85.28	527
85.29	513
85.3	515
85.31	531
85.32	528
85.33	517
85.34	534
85.35	554
85.36	545
85.37	555
85.38	565
85.39	559
85.4	544
85.41	546
85.42	514
85.43	517
85.44	522
85.45	524
85.46	516
85.47	539
85.48	548
85.49	547
85.5	564
85.51	561
85.52	554
85.53	551
85.54	545
85.55	519
85.56	514
85.57	531
85.58	533
85.59	545
85.6	551
85.61	554
85.62	560
85.63	534
85.64	541
85.65	539
85.66	523
85.67	524
85.68	545
85.69	542
85.7	549
85.71	547
85.72	531
85.73	520
85.74	553
85.75	566
85.76	544
85.77	536
85.78	542
85.79	549
85.8	556
85.81	553
85.82	547
85.83	532
85.84	540
85.85	546
85.86	541
85.87	531
85.88	544
85.89	538
85.9	516
85.91	513
85.92	538
85.93	528
85.94	514
85.95	527
85.96	521
85.97	533
85.98	539
85.99	513
86.0	490
86.01	527
86.02	503
86.03	510
86.04	531
86.05	534
86.06	516
86.07	511
86.08	513
86.09	512
86.1	531
86.11	523
86.12	511
86.13	524
86.14	520
86.15	505
86.16	499
86.17	494
86.18	502
86.19	509
86.2	498
86.21	492
86.22	500
86.23	505
86.24	509
86.25	515
86.26	511
86.27	509
86.28	517
86.29	511
86.3	548
86.31	536
86.32	514
86.33	511
86.34	505
86.35	504
86.36	515
86.37	513
86.38	506
86.39	524
86.4	542
86.41	545
86.42	530
86.43	539
86.44	517
86.45	504
86.46	504
86.47	512
86.48	511
86.49	512
86.5	517
86.51	518
86.52	514
86.53	520
86.54	497
86.55	484
86.56	500
86.57	501
86.58	511
86.59	517
86.6	501
86.61	510
86.62	515
86.63	516
86.64	530
86.65	540
86.66	532
86.67	509
86.68	513
86.69	507
86.7	510
86.71	523
86.72	502
86.73	513
86.74	517
86.75	517
86.76	504
86.77	518
86.78	531
86.79	520
86.8	532
86.81	536
86.82	510
86.83	508
86.84	507
86.85	520
86.86	524
86.87	531
86.88	505
86.89	508
86.9	517
86.91	517
86.92	507
86.93	525
86.94	517
86.95	505
86.96	502
86.97	504
86.98	519
86.99	534
87.0	545
87.01	535
87.02	538
87.03	524
87.04	517
87.05	490
87.06	470
87.07	488
87.08	489
87.09	509
87.1	510
87.11	507
87.12	501
87.13	483
87.14	509
87.15	508
87.16	480
87.17	496
87.18	519
87.19	517
87.2	502
87.21	507
87.22	513
87.23	522
87.24	525
87.25	516
87.26	508
87.27	506
87.28	516
87.29	524
87.3	536
87.31	518
87.32	510
87.33	499
87.34	503
87.35	502
87.36	508
87.37	511
87.38	497
87.39	518
87.4	542
87.41	521
87.42	509
87.43	508
87.44	515
87.45	523
87.46	523
87.47	526
87.48	494
87.49	509
87.5	528
87.51	523
87.52	508
87.53	508
87.54	509
87.55	525
87.56	528
87.57	521
87.58	510
87.59	513
87.6	512
87.61	522
87.62	529
87.63	514
87.64	504
87.65	505
87.66	510
87.67	509
87.68	498
87.69	505
87.7	490
87.71	500
87.72	529
87.73	517
87.74	504
87.75	510
87.76	490
87.77	490
87.78	519
87.79	530
87.8	542
87.81	524
87.82	505
87.83	502
87.84	506
87.85	518
87.86	509
87.87	507
87.88	523
87.89	508
87.9	506
87.91	518
87.92	533
87.93	528
87.94	513
87.95	516
87.96	505
87.97	494
87.98	491
87.99	494
88.0	493
88.01	503
88.02	507
88.03	507
88.04	520
88.05	518
88.06	509
88.07	510
88.08	510
88.09	508
88.1	502
88.11	498
88.12	489
88.13	514
88.14	501
88.15	484
88.16	494
88.17	510
88.18	508
88.19	491
88.2	492
88.21	497
88.22	501
88.23	499
88.24	512
88.25	532
88.26	521
88.27	508
88.28	513
88.29	500
88.3	496
88.31	521
88.32	523
88.33	496
88.34	499
88.35	502
88.36	510
88.37	512
88.38	511
88.39	509
88.4	515
88.41	513
88.42	519
88.43	522
88.44	502
88.45	503
88.46	509
88.47	502
88.48	501
88.49	505
88.5	498
88.51	509
88.52	518
88.53	502
88.54	500
88.55	503
88.56	505
88.57	511
88.58	510
88.59	495
88.6	500
88.61	516
88.62	528
88.63	513
88.64	497
88.65	501
88.66	505
88.67	493
88.68	499
88.69	532
88.7	512
88.71	487
88.72	500
88.73	511
88.74	518
88.75	506
88.76	492
88.77	499
88.78	508
88.79	533
88.8	527
88.81	502
88.82	472
88.83	482
88.84	504
88.85	504
88.86	507
88.87	513
88.88	509
88.89	506
88.9	504
88.91	476
88.92	484
88.93	505
88.94	489
88.95	497
88.96	492
88.97	486
88.98	507
88.99	519
89.0	518
89.01	509
89.02	503
89.03	517
89.04	519
89.05	523
89.06	527
89.07	502
89.08	491
89.09	505
89.1	520
89.11	512
89.12	512
89.13	525
89.14	527
89.15	521
89.16	506
89.17	502
89.18	518
89.19	520
89.2	503
89.21	488
89.22	496
89.23	499
89.24	488
89.25	485
89.26	493
89.27	499
89.28	523
89.29	519
89.3	489
89.31	483
89.32	490
89.33	500
89.34	494
89.35	490
89.36	506
89.37	508
89.38	491
89.39	495
89.4	504
89.41	519
89.42	510
89.43	490
89.44	476
89.45	471
89.46	479
89.47	496
89.48	506
89.49	506
89.5	510
89.51	511
89.52	497
89.53	497
89.54	521
89.55	515
89.56	517
89.57	518
89.58	512
89.59	494
89.6	480
89.61	488
89.62	498
89.63	496
89.64	504
89.65	508
89.66	484
89.67	485
89.68	505
89.69	504
89.7	509
89.71	497
89.72	488
89.73	500
89.74	520
89.75	517
89.76	511
89.77	514
89.78	525
89.79	519
89.8	502
89.81	523
89.82	518
89.83	516
89.84	531
89.85	522
89.86	519
89.87	514
89.88	508
89.89	507
89.9	515
89.91	515
89.92	492
89.93	482
89.94	495
89.95	496
89.96	511
89.97	527
89.98	510
89.99	472
90.0	466
90.01	478
90.02	495
90.03	496
90.04	476
90.05	488
90.06	507
90.07	509
90.08	510
90.09	518
90.1	513
90.11	496
90.12	496
90.13	501
90.14	499
90.15	497
90.16	511
90.17	503
90.18	484
90.19	490
90.2	496
90.21	488
90.22	503
90.23	512
90.24	493
90.25	509
90.26	534
90.27	524
90.28	512
90.29	503
90.3	500
90.31	496
90.32	501
90.33	516
90.34	507
90.35	496
90.36	499
90.37	496
90.38	491
90.39	500
90.4	496
90.41	496
90.42	503
90.43	499
90.44	489
90.45	483
90.46	479
90.47	487
90.48	499
90.49	484
90.5	489
90.51	500
90.52	492
90.53	485
90.54	487
90.55	495
90.56	496
90.57	487
90.58	466
90.59	457
90.6	459
90.61	464
90.62	474
90.63	490
90.64	512
90.65	515
90.66	491
90.67	479
90.68	472
90.69	469
90.7	490
90.71	510
90.72	494
90.73	478
90.74	490
90.75	507
90.76	503
90.77	490
90.78	489
90.79	501
90.8	497
90.81	477
90.82	480
90.83	492
90.84	483
90.85	471
90.86	482
90.87	497
90.88	499
90.89	489
90.9	455
90.91	457
90.92	497
90.93	502
90.94	488
90.95	491
90.96	492
90.97	501
90.98	511
90.99	505
91.0	502
91.01	499
91.02	492
91.03	511
91.04	518
91.05	503
91.06	507
91.07	495
91.08	487
91.09	496
91.1	488
91.11	483
91.12	478
91.13	476
91.14	487
91.15	486
91.16	480
91.17	501
91.18	515
91.19	490
91.2	479
91.21	483
91.22	485
91.23	514
91.24	528
91.25	496
91.26	468
91.27	491
91.28	509
91.29	502
91.3	490
91.31	470
91.32	477
91.33	492
91.34	482
91.35	466
91.36	454
91.37	462
91.38	486
91.39	498
91.4	507
91.41	503
91.42	488
91.43	480
91.44	480
91.45	489
91.46	472
91.47	467
91.48	490
91.49	496
91.5	498
91.51	498
91.52	493
91.53	494
91.54	509
91.55	512
91.56	516
91.57	519
91.58	496
91.59	481
91.6	495
91.61	504
91.62	504
91.63	500
91.64	481
91.65	472
91.66	479
91.67	476
91.68	481
91.69	497
91.7	496
91.71	502
91.72	493
91.73	469
91.74	473
91.75	483
91.76	487
91.77	487
91.78	473
91.79	481
91.8	495
91.81	492
91.82	479
91.83	470
91.84	483
91.85	483
91.86	473
91.87	489
91.88	485
91.89	477
91.9	490
91.91	498
91.92	493
91.93	490
91.94	508
91.95	504
91.96	482
91.97	474
91.98	475
91.99	482
92.0	490
92.01	505
92.02	517
92.03	502
92.04	492
92.05	516
92.06	518
92.07	508
92.08	497
92.09	483
92.1	493
92.11	498
92.12	483
92.13	484
92.14	490
92.15	486
92.16	494
92.17	480
92.18	466
92.19	471
92.2	471
92.21	474
92.22	480
92.23	490
92.24	503
92.25	503
92.26	489
92.27	481
92.28	483
92.29	491
92.3	509
92.31	525
92.32	503
92.33	471
92.34	475
92.35	505
92.36	509
92.37	512
92.38	512
92.39	499
92.4	495
92.41	508
92.42	518
92.43	524
92.44	524
92.45	518
92.46	503
92.47	505
92.48	510
92.49	501
92.5	489
92.51	461
92.52	448
92.53	477
92.54	504
92.55	499
92.56	502
92.57	508
92.58	495
92.59	481
92.6	497
92.61	518
92.62	521
92.63	526
92.64	534
92.65	517
92.66	503
92.67	505
92.68	496
92.69	478
92.7	482
92.71	499
92.72	495
92.73	492
92.74	505
92.75	509
92.76	483
92.77	489
92.78	503
92.79	500
92.8	497
92.81	486
92.82	481
92.83	507
92.84	512
92.85	497
92.86	490
92.87	492
92.88	498
92.89	493
92.9	501
92.91	498
92.92	485
92.93	489
92.94	491
92.95	492
92.96	501
92.97	501
92.98	497
92.99	487
93.0	484
93.01	501
93.02	514
93.03	499
93.04	498
93.05	507
93.06	492
93.07	483
93.08	486
93.09	495
93.1	501
93.11	503
93.12	492
93.13	482
93.14	490
93.15	501
93.16	481
93.17	471
93.18	473
93.19	462
93.2	483
93.21	514
93.22	520
93.23	510
93.24	508
93.25	517
93.26	514
93.27	506
93.28	504
93.29	492
93.3	491
93.31	500
93.32	508
93.33	494
93.34	498
93.35	496
93.36	490
93.37	505
93.38	506
93.39	505
93.4	506
93.41	493
93.42	479
93.43	477
93.44	481
93.45	487
93.46	505
93.47	503
93.48	501
93.49	491
93.5	495
93.51	504
93.52	496
93.53	500
93.54	506
93.55	500
93.56	506
93.57	518
93.58	508
93.59	503
93.6	513
93.61	504
93.62	479
93.63	465
93.64	483
93.65	482
93.66	472
93.67	476
93.68	469
93.69	444
93.7	468
93.71	480
93.72	488
93.73	485
93.74	472
93.75	474
93.76	473
93.77	467
93.78	462
93.79	482
93.8	499
93.81	498
93.82	483
93.83	475
93.84	478
93.85	493
93.86	490
93.87	498
93.88	497
93.89	498
93.9	495
93.91	498
93.92	508
93.93	519
93.94	510
93.95	492
93.96	489
93.97	482
93.98	477
93.99	466
94.0	464
94.01	476
94.02	478
94.03	471
94.04	489
94.05	502
94.06	511
94.07	504
94.08	472
94.09	474
94.1	486
94.11	490
94.12	501
94.13	503
94.14	503
94.15	486
94.16	496
94.17	510
94.18	513
94.19	506
94.2	476
94.21	475
94.22	480
94.23	496
94.24	493
94.25	496
94.26	499
94.27	495
94.28	489
94.29	480
94.3	479
94.31	504
94.32	493
94.33	470
94.34	488
94.35	496
94.36	477
94.37	473
94.38	484
94.39	488
94.4	480
94.41	485
94.42	494
94.43	505
94.44	495
94.45	494
94.46	499
94.47	490
94.48	495
94.49	498
94.5	504
94.51	485
94.52	473
94.53	497
94.54	496
94.55	486
94.56	479
94.57	499
94.58	512
94.59	489
94.6	455
94.61	451
94.62	462
94.63	477
94.64	483
94.65	491
94.66	475
94.67	490
94.68	499
94.69	499
94.7	470
94.71	478
94.72	497
94.73	501
94.74	501
94.75	484
94.76	484
94.77	499
94.78	505
94.79	480
94.8	457
94.81	469
94.82	489
94.83	490
94.84	496
94.85	484
94.86	486
94.87	496
94.88	497
94.89	478
94.9	485
94.91	503
94.92	499
94.93	484
94.94	469
94.95	480
94.96	488
94.97	482
94.98	490
94.99	493
95.0	500
95.01	487
95.02	469
95.03	480
95.04	478
95.05	477
95.06	480
95.07	496
95.08	475
95.09	468
95.1	490
95.11	479
95.12	482
95.13	494
95.14	496
95.15	495
95.16	477
95.17	465
95.18	473
95.19	496
95.2	481
95.21	478
95.22	481
95.23	489
95.24	500
95.25	497
95.26	503
95.27	510
95.28	512
95.29	490
95.3	499
95.31	515
95.32	488
95.33	495
95.34	502
95.35	474
95.36	484
95.37	509
95.38	482
95.39	490
95.4	503
95.41	505
95.42	503
95.43	485
95.44	477
95.45	480
95.46	481
95.47	475
95.48	493
95.49	506
95.5	512
95.51	506
95.52	494
95.53	495
95.54	473
95.55	479
95.56	492
95.57	488
95.58	492
95.59	500
95.6	494
95.61	475
95.62	476
95.63	475
95.64	480
95.65	486
95.66	492
95.67	476
95.68	477
95.69	496
95.7	511
95.71	493
95.72	472
95.73	463
95.74	487
95.75	486
95.76	481
95.77	493
95.78	464
95.79	481
95.8	490
95.81	473
95.82	474
95.83	482
95.84	514
95.85	511
95.86	509
95.87	503
95.88	476
95.89	473
95.9	492
95.91	490
95.92	491
95.93	484
95.94	472
95.95	476
95.96	488
95.97	516
95.98	507
95.99	504
96.0	493
96.01	492
96.02	540
96.03	513
96.04	475
96.05	474
96.06	474
96.07	467
96.08	468
96.09	489
96.1	492
96.11	471
96.12	462
96.13	478
96.14	488
96.15	477
96.16	479
96.17	499
96.18	493
96.19	480
96.2	489
96.21	504
96.22	496
96.23	468
96.24	480
96.25	507
96.26	505
96.27	495
96.28	494
96.29	487
96.3	501
96.31	503
96.32	493
96.33	466
96.34	483
96.35	504
96.36	499
96.37	469
96.38	492
96.39	498
96.4	507
96.41	481
96.42	473
96.43	500
96.44	498
96.45	484
96.46	488
96.47	492
96.48	492
96.49	486
96.5	474
96.51	486
96.52	480
96.53	484
96.54	497
96.55	485
96.56	495
96.57	492
96.58	506
96.59	480
96.6	490
96.61	496
96.62	492
96.63	488
96.64	484
96.65	491
96.66	471
96.67	472
96.68	470
96.69	473
96.7	499
96.71	506
96.72	484
96.73	468
96.74	478
96.75	497
96.76	522
96.77	514
96.78	508
96.79	508
96.8	521
96.81	498
96.82	514
96.83	519
96.84	511
96.85	504
96.86	500
96.87	494
96.88	511
96.89	510
96.9	495
96.91	483
96.92	486
96.93	502
96.94	487
96.95	490
96.96	490
96.97	460
96.98	478
96.99	488
97.0	483
97.01	484
97.02	491
97.03	508
97.04	524
97.05	508
97.06	497
97.07	512
97.08	507
97.09	497
97.1	486
97.11	497
97.12	506
97.13	482
97.14	491
97.15	516
97.16	510
97.17	490
97.18	494
97.19	477
97.2	478
97.21	491
97.22	496
97.23	499
97.24	493
97.25	478
97.26	478
97.27	492
97.28	489
97.29	488
97.3	480
97.31	491
97.32	501
97.33	496
97.34	460
97.35	474
97.36	475
97.37	488
97.38	488
97.39	502
97.4	499
97.41	521
97.42	517
97.43	513
97.44	489
97.45	498
97.46	495
97.47	493
97.48	495
97.49	493
97.5	490
97.51	496
97.52	500
97.53	488
97.54	506
97.55	499
97.56	491
97.57	502
97.58	511
97.59	494
97.6	483
97.61	464
97.62	482
97.63	493
97.64	460
97.65	481
97.66	505
97.67	485
97.68	475
97.69	483
97.7	486
97.71	483
97.72	498
97.73	501
97.74	525
97.75	520
97.76	512
97.77	514
97.78	503
97.79	488
97.8	501
97.81	491
97.82	481
97.83	473
97.84	470
97.85	502
97.86	494
97.87	491
97.88	490
97.89	455
97.9	490
97.91	510
97.92	488
97.93	497
97.94	488
97.95	500
97.96	513
97.97	508
97.98	512
97.99	499
98.0	502
98.01	501
98.02	484
98.03	490
98.04	501
98.05	489
98.06	464
98.07	481
98.08	494
98.09	498
98.1	508
98.11	496
98.12	508
98.13	489
98.14	484
98.15	486
98.16	481
98.17	476
98.18	474
98.19	477
98.2	494
98.21	512
98.22	514
98.23	494
98.24	502
98.25	497
98.26	487
98.27	517
98.28	518
98.29	463
98.3	466
98.31	460
98.32	475
98.33	498
98.34	499
98.35	520
98.36	523
98.37	522
98.38	518
98.39	502
98.4	496
98.41	504
98.42	526
98.43	508
98.44	510
98.45	530
98.46	525
98.47	486
98.48	514
98.49	478
98.5	487
98.51	484
98.52	502
98.53	497
98.54	502
98.55	490
98.56	517
98.57	507
98.58	495
98.59	505
98.6	503
98.61	495
98.62	503
98.63	523
98.64	534
98.65	516
98.66	493
98.67	485
98.68	511
98.69	527
98.7	512
98.71	481
98.72	512
98.73	488
98.74	476
98.75	491
98.76	514
98.77	514
98.78	522
98.79	538
98.8	521
98.81	487
98.82	502
98.83	509
98.84	520
98.85	517
98.86	504
98.87	501
98.88	514
98.89	508
98.9	484
98.91	506
98.92	519
98.93	517
98.94	484
98.95	485
98.96	490
98.97	512
98.98	505
98.99	486
99.0	484
99.01	490
99.02	493
99.03	497
99.04	505
99.05	523
99.06	501
99.07	504
99.08	501
99.09	489
99.1	518
99.11	515
99.12	545
99.13	530
99.14	543
99.15	541
99.16	557
99.17	558
99.18	541
99.19	557
99.2	534
99.21	531
99.22	535
99.23	552
99.24	519
99.25	523
99.26	533
99.27	577
99.28	560
99.29	536
99.3	548
99.31	550
99.32	547
99.33	546
99.34	555
99.35	556
99.36	574
99.37	595
99.38	591
99.39	604
99.4	559
99.41	552
99.42	551
99.43	587
99.44	605
99.45	632
99.46	612
99.47	631
99.48	635
99.49	638
99.5	665
99.51	662
99.52	646
99.53	627
99.54	678
99.55	690
99.56	654
99.57	716
99.58	771
99.59	769
99.6	790
99.61	837
99.62	838
99.63	932
99.64	1018
99.65	1062
99.66	1142
99.67	1266
99.68	1384
99.69	1535
99.7	1638
99.71	1742
99.72	1931
99.73	2137
99.74	2340
99.75	2514
99.76	2689
99.77	2892
99.78	3037
99.79	3262
99.8	3391
99.81	3528
99.82	3636
99.83	3603
99.84	3602
99.85	3493
99.86	3335
99.87	3146
99.88	2964
99.89	2784
99.9	2547
99.91	2310
99.92	2112
99.93	1958
99.94	1775
99.95	1615
99.96	1526
99.97	1415
99.98	1384
99.99	1294
100.0	1306
