Single_LiMn2O4_long_
Wavelength = 1.54059 Ã… (Cu)
10.0	1963
10.01	1889
10.02	1862
10.03	1876
10.04	1909
10.05	1942
10.06	1906
10.07	1871
10.08	1878
10.09	1900
10.1	1887
10.11	1895
10.12	1905
10.13	1937
10.14	1941
10.15	1965
10.16	1917
10.17	1923
10.18	1974
10.19	1930
10.2	1862
10.21	1868
10.22	1941
10.23	1911
10.24	1881
10.25	1880
10.26	1885
10.27	1935
10.28	1881
10.29	1910
10.3	1883
10.31	1900
10.32	1884
10.33	1857
10.34	1947
10.35	1967
10.36	1880
10.37	1976
10.38	1924
10.39	1913
10.4	1921
10.41	1922
10.42	1955
10.43	1987
10.44	1989
10.45	1954
10.46	1994
10.47	2016
10.48	1976
10.49	1977
10.5	2012
10.51	1980
10.52	2011
10.53	1980
10.54	1943
10.55	1969
10.56	1968
10.57	1943
10.58	1948
10.59	2020
10.6	2002
10.61	1941
10.62	1911
10.63	1917
10.64	1935
10.65	1974
10.66	1995
10.67	1981
10.68	1936
10.69	1963
10.7	1996
10.71	1984
10.72	1988
10.73	1966
10.74	1957
10.75	1959
10.76	1961
10.77	1947
10.78	1941
10.79	1932
10.8	1986
10.81	2015
10.82	1993
10.83	1975
10.84	1982
10.85	1971
10.86	1963
10.87	1976
10.88	2002
10.89	1980
10.9	2011
10.91	2049
10.92	2019
10.93	1995
10.94	2056
10.95	2037
10.96	2024
10.97	2006
10.98	2003
10.99	1992
11.0	2063
11.01	2046
11.02	2071
11.03	2028
11.04	2019
11.05	2048
11.06	2052
11.07	2036
11.08	1999
11.09	2053
11.1	2025
11.11	2060
11.12	2066
11.13	2012
11.14	2063
11.15	2011
11.16	1974
11.17	2010
11.18	2071
11.19	2055
11.2	2004
11.21	2000
11.22	2000
11.23	2030
11.24	2025
11.25	2021
11.26	2103
11.27	2107
11.28	2073
11.29	2089
11.3	2047
11.31	2036
11.32	2024
11.33	1991
11.34	2056
11.35	2058
11.36	2067
11.37	2044
11.38	2037
11.39	2071
11.4	2076
11.41	2079
11.42	2038
11.43	2053
11.44	2039
11.45	2044
11.46	2100
11.47	2100
11.48	2041
11.49	2081
11.5	2099
11.51	2058
11.52	2105
11.53	2127
11.54	2073
11.55	2024
11.56	2067
11.57	2134
11.58	2110
11.59	2087
11.6	2085
11.61	2055
11.62	2097
11.63	2129
11.64	2085
11.65	2120
11.66	2117
11.67	2097
11.68	2126
11.69	2165
11.7	2144
11.71	2095
11.72	2069
11.73	2076
11.74	2129
11.75	2086
11.76	2073
11.77	2047
11.78	2106
11.79	2079
11.8	2138
11.81	2110
11.82	2118
11.83	2103
11.84	2132
11.85	2129
11.86	2068
11.87	2056
11.88	2119
11.89	2129
11.9	2115
11.91	2133
11.92	2131
11.93	2152
11.94	2161
11.95	2133
11.96	2101
11.97	2067
11.98	2100
11.99	2110
12.0	2140
12.01	2110
12.02	2079
12.03	2179
12.04	2175
12.05	2187
12.06	2157
12.07	2175
12.08	2146
12.09	2132
12.1	2151
12.11	2163
12.12	2145
12.13	2162
12.14	2096
12.15	2096
12.16	2162
12.17	2135
12.18	2128
12.19	2091
12.2	2136
12.21	2211
12.22	2166
12.23	2140
12.24	2167
12.25	2194
12.26	2189
12.27	2146
12.28	2139
12.29	2150
12.3	2157
12.31	2150
12.32	2150
12.33	2144
12.34	2138
12.35	2086
12.36	2099
12.37	2151
12.38	2124
12.39	2164
12.4	2164
12.41	2115
12.42	2126
12.43	2204
12.44	2196
12.45	2142
12.46	2191
12.47	2161
12.48	2168
12.49	2164
12.5	2148
12.51	2208
12.52	2171
12.53	2154
12.54	2162
12.55	2200
12.56	2213
12.57	2238
12.58	2254
12.59	2205
12.6	2153
12.61	2246
12.62	2235
12.63	2204
12.64	2161
12.65	2175
12.66	2187
12.67	2221
12.68	2144
12.69	2150
12.7	2191
12.71	2219
12.72	2203
12.73	2230
12.74	2238
12.75	2230
12.76	2183
12.77	2196
12.78	2234
12.79	2192
12.8	2220
12.81	2205
12.82	2225
12.83	2195
12.84	2203
12.85	2287
12.86	2175
12.87	2120
12.88	2214
12.89	2231
12.9	2192
12.91	2152
12.92	2210
12.93	2256
12.94	2228
12.95	2225
12.96	2226
12.97	2219
12.98	2242
12.99	2255
13.0	2266
13.01	2204
13.02	2209
13.03	2214
13.04	2195
13.05	2260
13.06	2194
13.07	2250
13.08	2283
13.09	2280
13.1	2198
13.11	2214
13.12	2248
13.13	2261
13.14	2229
13.15	2193
13.16	2216
13.17	2226
13.18	2288
13.19	2262
13.2	2247
13.21	2213
13.22	2245
13.23	2314
13.24	2280
13.25	2226
13.26	2256
13.27	2283
13.28	2225
13.29	2224
13.3	2213
13.31	2289
13.32	2288
13.33	2256
13.34	2195
13.35	2202
13.36	2230
13.37	2237
13.38	2252
13.39	2245
13.4	2256
13.41	2225
13.42	2252
13.43	2278
13.44	2271
13.45	2261
13.46	2244
13.47	2273
13.48	2304
13.49	2301
13.5	2307
13.51	2254
13.52	2178
13.53	2241
13.54	2275
13.55	2281
13.56	2259
13.57	2239
13.58	2194
13.59	2207
13.6	2246
13.61	2238
13.62	2212
13.63	2228
13.64	2270
13.65	2281
13.66	2261
13.67	2263
13.68	2258
13.69	2258
13.7	2269
13.71	2252
13.72	2315
13.73	2327
13.74	2281
13.75	2232
13.76	2230
13.77	2311
13.78	2367
13.79	2264
13.8	2250
13.81	2303
13.82	2332
13.83	2325
13.84	2269
13.85	2292
13.86	2340
13.87	2324
13.88	2307
13.89	2273
13.9	2274
13.91	2297
13.92	2312
13.93	2354
13.94	2344
13.95	2284
13.96	2250
13.97	2239
13.98	2306
13.99	2299
14.0	2269
14.01	2269
14.02	2288
14.03	2305
14.04	2294
14.05	2328
14.06	2340
14.07	2297
14.08	2282
14.09	2307
14.1	2274
14.11	2337
14.12	2323
14.13	2298
14.14	2281
14.15	2307
14.16	2358
14.17	2374
14.18	2348
14.19	2339
14.2	2345
14.21	2331
14.22	2347
14.23	2359
14.24	2358
14.25	2330
14.26	2327
14.27	2315
14.28	2348
14.29	2368
14.3	2352
14.31	2350
14.32	2349
14.33	2367
14.34	2345
14.35	2355
14.36	2362
14.37	2323
14.38	2300
14.39	2319
14.4	2333
14.41	2302
14.42	2303
14.43	2296
14.44	2314
14.45	2343
14.46	2323
14.47	2293
14.48	2371
14.49	2410
14.5	2320
14.51	2298
14.52	2305
14.53	2393
14.54	2380
14.55	2344
14.56	2345
14.57	2365
14.58	2380
14.59	2371
14.6	2344
14.61	2333
14.62	2324
14.63	2338
14.64	2369
14.65	2358
14.66	2326
14.67	2302
14.68	2300
14.69	2344
14.7	2285
14.71	2256
14.72	2337
14.73	2379
14.74	2363
14.75	2351
14.76	2294
14.77	2308
14.78	2359
14.79	2360
14.8	2382
14.81	2384
14.82	2366
14.83	2340
14.84	2340
14.85	2320
14.86	2293
14.87	2281
14.88	2295
14.89	2321
14.9	2303
14.91	2340
14.92	2360
14.93	2306
14.94	2307
14.95	2351
14.96	2311
14.97	2359
14.98	2300
14.99	2281
15.0	2330
15.01	2320
15.02	2353
15.03	2310
15.04	2298
15.05	2356
15.06	2378
15.07	2353
15.08	2316
15.09	2303
15.1	2357
15.11	2355
15.12	2304
15.13	2270
15.14	2271
15.15	2296
15.16	2361
15.17	2364
15.18	2333
15.19	2316
15.2	2311
15.21	2284
15.22	2303
15.23	2282
15.24	2288
15.25	2311
15.26	2325
15.27	2386
15.28	2358
15.29	2290
15.3	2260
15.31	2262
15.32	2264
15.33	2277
15.34	2287
15.35	2273
15.36	2270
15.37	2309
15.38	2329
15.39	2370
15.4	2346
15.41	2306
15.42	2305
15.43	2279
15.44	2306
15.45	2310
15.46	2328
15.47	2292
15.48	2263
15.49	2299
15.5	2293
15.51	2315
15.52	2387
15.53	2403
15.54	2357
15.55	2303
15.56	2307
15.57	2301
15.58	2290
15.59	2277
15.6	2266
15.61	2263
15.62	2271
15.63	2312
15.64	2320
15.65	2244
15.66	2252
15.67	2272
15.68	2255
15.69	2275
15.7	2262
15.71	2251
15.72	2272
15.73	2294
15.74	2320
15.75	2328
15.76	2307
15.77	2313
15.78	2325
15.79	2359
15.8	2365
15.81	2352
15.82	2310
15.83	2300
15.84	2276
15.85	2260
15.86	2303
15.87	2307
15.88	2324
15.89	2305
15.9	2272
15.91	2295
15.92	2303
15.93	2294
15.94	2295
15.95	2293
15.96	2309
15.97	2296
15.98	2243
15.99	2281
16.0	2335
16.01	2305
16.02	2291
16.03	2287
16.04	2283
16.05	2293
16.06	2291
16.07	2281
16.08	2297
16.09	2297
16.1	2232
16.11	2193
16.12	2241
16.13	2280
16.14	2301
16.15	2289
16.16	2275
16.17	2292
16.18	2286
16.19	2290
16.2	2338
16.21	2353
16.22	2317
16.23	2306
16.24	2293
16.25	2297
16.26	2282
16.27	2287
16.28	2317
16.29	2313
16.3	2296
16.31	2298
16.32	2277
16.33	2275
16.34	2272
16.35	2258
16.36	2234
16.37	2241
16.38	2298
16.39	2308
16.4	2279
16.41	2279
16.42	2320
16.43	2357
16.44	2316
16.45	2281
16.46	2309
16.47	2258
16.48	2274
16.49	2323
16.5	2320
16.51	2310
16.52	2315
16.53	2343
16.54	2321
16.55	2258
16.56	2242
16.57	2305
16.58	2318
16.59	2285
16.6	2252
16.61	2209
16.62	2234
16.63	2266
16.64	2287
16.65	2288
16.66	2300
16.67	2321
16.68	2289
16.69	2273
16.7	2273
16.71	2256
16.72	2218
16.73	2217
16.74	2291
16.75	2300
16.76	2251
16.77	2223
16.78	2220
16.79	2239
16.8	2263
16.81	2277
16.82	2278
16.83	2243
16.84	2232
16.85	2259
16.86	2286
16.87	2271
16.88	2224
16.89	2237
16.9	2312
16.91	2304
16.92	2251
16.93	2259
16.94	2289
16.95	2279
16.96	2275
16.97	2297
16.98	2333
16.99	2323
17.0	2294
17.01	2263
17.02	2223
17.03	2238
17.04	2268
17.05	2254
17.06	2248
17.07	2270
17.08	2294
17.09	2304
17.1	2281
17.11	2255
17.12	2244
17.13	2263
17.14	2311
17.15	2319
17.16	2277
17.17	2257
17.18	2266
17.19	2272
17.2	2271
17.21	2250
17.22	2250
17.23	2252
17.24	2254
17.25	2306
17.26	2321
17.27	2290
17.28	2280
17.29	2284
17.3	2251
17.31	2219
17.32	2228
17.33	2255
17.34	2250
17.35	2253
17.36	2269
17.37	2266
17.38	2261
17.39	2279
17.4	2298
17.41	2290
17.42	2273
17.43	2273
17.44	2265
17.45	2239
17.46	2260
17.47	2303
17.48	2311
17.49	2273
17.5	2262
17.51	2284
17.52	2302
17.53	2301
17.54	2274
17.55	2239
17.56	2217
17.57	2216
17.58	2234
17.59	2251
17.6	2263
17.61	2272
17.62	2249
17.63	2281
17.64	2329
17.65	2306
17.66	2261
17.67	2264
17.68	2279
17.69	2238
17.7	2227
17.71	2240
17.72	2232
17.73	2283
17.74	2303
17.75	2261
17.76	2217
17.77	2179
17.78	2197
17.79	2226
17.8	2247
17.81	2253
17.82	2227
17.83	2215
17.84	2246
17.85	2257
17.86	2230
17.87	2237
17.88	2266
17.89	2281
17.9	2259
17.91	2255
17.92	2268
17.93	2274
17.94	2311
17.95	2333
17.96	2331
17.97	2316
17.98	2347
17.99	2358
18.0	2328
18.01	2344
18.02	2339
18.03	2300
18.04	2296
18.05	2341
18.06	2384
18.07	2415
18.08	2385
18.09	2346
18.1	2366
18.11	2388
18.12	2365
18.13	2340
18.14	2384
18.15	2405
18.16	2388
18.17	2425
18.18	2436
18.19	2404
18.2	2409
18.21	2434
18.22	2472
18.23	2440
18.24	2418
18.25	2465
18.26	2492
18.27	2508
18.28	2543
18.29	2548
18.3	2543
18.31	2532
18.32	2525
18.33	2588
18.34	2665
18.35	2667
18.36	2674
18.37	2712
18.38	2722
18.39	2776
18.4	2871
18.41	2898
18.42	2901
18.43	2976
18.44	3021
18.45	3073
18.46	3212
18.47	3359
18.48	3489
18.49	3592
18.5	3747
18.51	3959
18.52	4166
18.53	4421
18.54	4757
18.55	5139
18.56	5541
18.57	5976
18.58	6493
18.59	7098
18.6	7747
18.61	8553
18.62	9553
18.63	10476
18.64	11474
18.65	12665
18.66	13760
18.67	14698
18.68	15345
18.69	15607
18.7	15316
18.71	14501
18.72	13388
18.73	12035
18.74	10630
18.75	9234
18.76	7853
18.77	6625
18.78	5533
18.79	4754
18.8	4229
18.81	3755
18.82	3396
18.83	3214
18.84	3103
18.85	2944
18.86	2855
18.87	2807
18.88	2723
18.89	2657
18.9	2658
18.91	2635
18.92	2587
18.93	2579
18.94	2592
18.95	2553
18.96	2516
18.97	2518
18.98	2526
18.99	2525
19.0	2485
19.01	2464
19.02	2499
19.03	2474
19.04	2488
19.05	2472
19.06	2433
19.07	2414
19.08	2401
19.09	2378
19.1	2380
19.11	2391
19.12	2382
19.13	2371
19.14	2371
19.15	2336
19.16	2300
19.17	2299
19.18	2270
19.19	2306
19.2	2317
19.21	2257
19.22	2231
19.23	2291
19.24	2285
19.25	2269
19.26	2307
19.27	2271
19.28	2239
19.29	2258
19.3	2308
19.31	2330
19.32	2308
19.33	2268
19.34	2285
19.35	2336
19.36	2328
19.37	2269
19.38	2262
19.39	2279
19.4	2330
19.41	2267
19.42	2180
19.43	2213
19.44	2266
19.45	2211
19.46	2220
19.47	2248
19.48	2212
19.49	2258
19.5	2289
19.51	2259
19.52	2236
19.53	2239
19.54	2253
19.55	2263
19.56	2264
19.57	2312
19.58	2351
19.59	2349
19.6	2345
19.61	2297
19.62	2289
19.63	2235
19.64	2179
19.65	2227
19.66	2256
19.67	2270
19.68	2256
19.69	2223
19.7	2203
19.71	2190
19.72	2174
19.73	2214
19.74	2217
19.75	2209
19.76	2238
19.77	2272
19.78	2284
19.79	2271
19.8	2204
19.81	2178
19.82	2147
19.83	2186
19.84	2205
19.85	2200
19.86	2180
19.87	2177
19.88	2197
19.89	2275
19.9	2299
19.91	2274
19.92	2238
19.93	2191
19.94	2180
19.95	2178
19.96	2178
19.97	2171
19.98	2164
19.99	2178
20.0	2230
20.01	2192
20.02	2161
20.03	2193
20.04	2209
20.05	2178
20.06	2149
20.07	2202
20.08	2207
20.09	2181
20.1	2124
20.11	2127
20.12	2136
20.13	2128
20.14	2120
20.15	2188
20.16	2153
20.17	2112
20.18	2099
20.19	2149
20.2	2180
20.21	2164
20.22	2176
20.23	2167
20.24	2150
20.25	2102
20.26	2093
20.27	2111
20.28	2121
20.29	2129
20.3	2157
20.31	2144
20.32	2077
20.33	2112
20.34	2145
20.35	2157
20.36	2165
20.37	2143
20.38	2120
20.39	2114
20.4	2140
20.41	2150
20.42	2110
20.43	2078
20.44	2077
20.45	2128
20.46	2138
20.47	2130
20.48	2107
20.49	2070
20.5	2122
20.51	2130
20.52	2080
20.53	2105
20.54	2094
20.55	2093
20.56	2094
20.57	2071
20.58	2128
20.59	2120
20.6	2077
20.61	2083
20.62	2078
20.63	2064
20.64	2082
20.65	2154
20.66	2104
20.67	2121
20.68	2126
20.69	2096
20.7	2083
20.71	2056
20.72	2095
20.73	2119
20.74	2071
20.75	2050
20.76	2048
20.77	2086
20.78	2050
20.79	2050
20.8	2040
20.81	2074
20.82	2111
20.83	2105
20.84	2083
20.85	2038
20.86	2024
20.87	2075
20.88	2073
20.89	2031
20.9	2044
20.91	2117
20.92	2119
20.93	2064
20.94	2004
20.95	2036
20.96	2052
20.97	2042
20.98	2084
20.99	2051
21.0	2047
21.01	2051
21.02	2038
21.03	2040
21.04	2061
21.05	2041
21.06	1998
21.07	1961
21.08	1996
21.09	2025
21.1	2050
21.11	2023
21.12	1977
21.13	2038
21.14	2056
21.15	2015
21.16	1994
21.17	2041
21.18	2041
21.19	2035
21.2	2023
21.21	2027
21.22	2027
21.23	2012
21.24	2015
21.25	2035
21.26	2032
21.27	2034
21.28	2059
21.29	2046
21.3	2059
21.31	2013
21.32	2032
21.33	1987
21.34	2010
21.35	2008
21.36	2007
21.37	1957
21.38	1958
21.39	1963
21.4	1985
21.41	2032
21.42	2015
21.43	2000
21.44	2003
21.45	2029
21.46	2038
21.47	1970
21.48	1955
21.49	1986
21.5	2038
21.51	2012
21.52	2015
21.53	1989
21.54	1992
21.55	2046
21.56	1973
21.57	1928
21.58	1915
21.59	1962
21.6	2009
21.61	2016
21.62	1993
21.63	1977
21.64	1944
21.65	1907
21.66	1894
21.67	1930
21.68	1975
21.69	1946
21.7	1979
21.71	1970
21.72	1944
21.73	1961
21.74	1992
21.75	2028
21.76	1925
21.77	1924
21.78	1919
21.79	1923
21.8	1910
21.81	1939
21.82	1954
21.83	1931
21.84	1976
21.85	1949
21.86	1972
21.87	1939
21.88	1972
21.89	1966
21.9	1973
21.91	1938
21.92	1991
21.93	1990
21.94	1996
21.95	1974
21.96	1935
21.97	1863
21.98	1953
21.99	1927
22.0	1976
22.01	1944
22.02	1973
22.03	1911
22.04	1897
22.05	1939
22.06	1915
22.07	1881
22.08	1909
22.09	1929
22.1	2004
22.11	1983
22.12	1923
22.13	1912
22.14	1932
22.15	1948
22.16	1943
22.17	1918
22.18	1939
22.19	1909
22.2	1902
22.21	1917
22.22	1908
22.23	1909
22.24	1950
22.25	1905
22.26	1885
22.27	1896
22.28	1896
22.29	1909
22.3	1910
22.31	1950
22.32	1942
22.33	1915
22.34	1908
22.35	1890
22.36	1903
22.37	1961
22.38	1926
22.39	1859
22.4	1891
22.41	1888
22.42	1857
22.43	1876
22.44	1905
22.45	1913
22.46	1900
22.47	1890
22.48	1875
22.49	1945
22.5	1954
22.51	1905
22.52	1949
22.53	1920
22.54	1940
22.55	1998
22.56	1930
22.57	1898
22.58	1879
22.59	1875
22.6	1890
22.61	1884
22.62	1905
22.63	1966
22.64	1937
22.65	1912
22.66	1931
22.67	1905
22.68	1867
22.69	1857
22.7	1836
22.71	1835
22.72	1909
22.73	1916
22.74	1873
22.75	1887
22.76	1929
22.77	1894
22.78	1908
22.79	1894
22.8	1867
22.81	1919
22.82	1879
22.83	1834
22.84	1819
22.85	1877
22.86	1850
22.87	1832
22.88	1793
22.89	1795
22.9	1851
22.91	1859
22.92	1827
22.93	1854
22.94	1814
22.95	1783
22.96	1836
22.97	1874
22.98	1888
22.99	1875
23.0	1833
23.01	1860
23.02	1817
23.03	1867
23.04	1906
23.05	1859
23.06	1896
23.07	1893
23.08	1853
23.09	1886
23.1	1862
23.11	1808
23.12	1857
23.13	1840
23.14	1799
23.15	1825
23.16	1850
23.17	1880
23.18	1845
23.19	1832
23.2	1838
23.21	1854
23.22	1786
23.23	1829
23.24	1847
23.25	1847
23.26	1833
23.27	1851
23.28	1823
23.29	1811
23.3	1836
23.31	1847
23.32	1868
23.33	1829
23.34	1843
23.35	1873
23.36	1850
23.37	1877
23.38	1868
23.39	1897
23.4	1820
23.41	1790
23.42	1856
23.43	1849
23.44	1851
23.45	1866
23.46	1865
23.47	1799
23.48	1853
23.49	1850
23.5	1861
23.51	1850
23.52	1849
23.53	1829
23.54	1840
23.55	1842
23.56	1859
23.57	1900
23.58	1839
23.59	1816
23.6	1827
23.61	1833
23.62	1864
23.63	1851
23.64	1829
23.65	1814
23.66	1864
23.67	1878
23.68	1822
23.69	1811
23.7	1822
23.71	1793
23.72	1786
23.73	1807
23.74	1828
23.75	1829
23.76	1841
23.77	1795
23.78	1748
23.79	1753
23.8	1772
23.81	1770
23.82	1787
23.83	1810
23.84	1807
23.85	1823
23.86	1779
23.87	1774
23.88	1809
23.89	1799
23.9	1805
23.91	1810
23.92	1802
23.93	1823
23.94	1811
23.95	1789
23.96	1761
23.97	1750
23.98	1795
23.99	1810
24.0	1809
24.01	1811
24.02	1800
24.03	1746
24.04	1754
24.05	1787
24.06	1806
24.07	1764
24.08	1760
24.09	1750
24.1	1777
24.11	1770
24.12	1775
24.13	1794
24.14	1790
24.15	1756
24.16	1731
24.17	1722
24.18	1806
24.19	1792
24.2	1782
24.21	1760
24.22	1769
24.23	1826
24.24	1792
24.25	1766
24.26	1769
24.27	1768
24.28	1786
24.29	1783
24.3	1779
24.31	1762
24.32	1740
24.33	1767
24.34	1815
24.35	1776
24.36	1719
24.37	1747
24.38	1794
24.39	1763
24.4	1759
24.41	1765
24.42	1744
24.43	1765
24.44	1769
24.45	1773
24.46	1770
24.47	1770
24.48	1724
24.49	1689
24.5	1728
24.51	1746
24.52	1741
24.53	1731
24.54	1742
24.55	1703
24.56	1723
24.57	1765
24.58	1776
24.59	1735
24.6	1789
24.61	1796
24.62	1743
24.63	1698
24.64	1718
24.65	1720
24.66	1731
24.67	1712
24.68	1758
24.69	1740
24.7	1697
24.71	1709
24.72	1762
24.73	1801
24.74	1803
24.75	1800
24.76	1747
24.77	1741
24.78	1731
24.79	1748
24.8	1757
24.81	1752
24.82	1723
24.83	1746
24.84	1724
24.85	1674
24.86	1651
24.87	1702
24.88	1720
24.89	1679
24.9	1706
24.91	1730
24.92	1761
24.93	1743
24.94	1739
24.95	1727
24.96	1699
24.97	1705
24.98	1714
24.99	1741
25.0	1724
25.01	1736
25.02	1743
25.03	1737
25.04	1729
25.05	1723
25.06	1665
25.07	1666
25.08	1678
25.09	1679
25.1	1732
25.11	1724
25.12	1653
25.13	1683
25.14	1734
25.15	1718
25.16	1754
25.17	1747
25.18	1742
25.19	1731
25.2	1699
25.21	1692
25.22	1677
25.23	1656
25.24	1671
25.25	1678
25.26	1713
25.27	1735
25.28	1744
25.29	1762
25.3	1734
25.31	1684
25.32	1716
25.33	1699
25.34	1675
25.35	1695
25.36	1723
25.37	1721
25.38	1709
25.39	1728
25.4	1732
25.41	1708
25.42	1723
25.43	1711
25.44	1715
25.45	1736
25.46	1736
25.47	1727
25.48	1736
25.49	1735
25.5	1724
25.51	1723
25.52	1707
25.53	1681
25.54	1657
25.55	1673
25.56	1672
25.57	1676
25.58	1696
25.59	1681
25.6	1647
25.61	1657
25.62	1705
25.63	1714
25.64	1704
25.65	1684
25.66	1685
25.67	1695
25.68	1670
25.69	1665
25.7	1673
25.71	1666
25.72	1672
25.73	1664
25.74	1681
25.75	1698
25.76	1726
25.77	1732
25.78	1681
25.79	1630
25.8	1661
25.81	1682
25.82	1671
25.83	1684
25.84	1673
25.85	1667
25.86	1661
25.87	1637
25.88	1631
25.89	1655
25.9	1679
25.91	1695
25.92	1674
25.93	1635
25.94	1636
25.95	1650
25.96	1650
25.97	1681
25.98	1694
25.99	1722
26.0	1706
26.01	1696
26.02	1663
26.03	1636
26.04	1641
26.05	1650
26.06	1647
26.07	1650
26.08	1634
26.09	1652
26.1	1634
26.11	1601
26.12	1582
26.13	1581
26.14	1640
26.15	1653
26.16	1663
26.17	1675
26.18	1671
26.19	1649
26.2	1630
26.21	1635
26.22	1663
26.23	1648
26.24	1622
26.25	1681
26.26	1678
26.27	1640
26.28	1624
26.29	1595
26.3	1610
26.31	1618
26.32	1623
26.33	1642
26.34	1663
26.35	1629
26.36	1627
26.37	1647
26.38	1641
26.39	1642
26.4	1630
26.41	1591
26.42	1618
26.43	1630
26.44	1626
26.45	1630
26.46	1619
26.47	1612
26.48	1608
26.49	1618
26.5	1616
26.51	1601
26.52	1605
26.53	1633
26.54	1645
26.55	1612
26.56	1593
26.57	1613
26.58	1628
26.59	1630
26.6	1664
26.61	1683
26.62	1664
26.63	1628
26.64	1572
26.65	1581
26.66	1626
26.67	1651
26.68	1637
26.69	1637
26.7	1653
26.71	1644
26.72	1637
26.73	1637
26.74	1646
26.75	1645
26.76	1623
26.77	1593
26.78	1594
26.79	1582
26.8	1574
26.81	1599
26.82	1575
26.83	1572
26.84	1606
26.85	1615
26.86	1635
26.87	1616
26.88	1581
26.89	1608
26.9	1626
26.91	1615
26.92	1610
26.93	1619
26.94	1614
26.95	1576
26.96	1561
26.97	1564
26.98	1583
26.99	1609
27.0	1621
27.01	1630
27.02	1642
27.03	1643
27.04	1645
27.05	1647
27.06	1609
27.07	1595
27.08	1612
27.09	1595
27.1	1581
27.11	1599
27.12	1640
27.13	1619
27.14	1583
27.15	1601
27.16	1603
27.17	1599
27.18	1604
27.19	1625
27.2	1645
27.21	1624
27.22	1598
27.23	1585
27.24	1595
27.25	1637
27.26	1626
27.27	1568
27.28	1558
27.29	1571
27.3	1557
27.31	1557
27.32	1591
27.33	1604
27.34	1586
27.35	1595
27.36	1595
27.37	1560
27.38	1556
27.39	1584
27.4	1595
27.41	1584
27.42	1597
27.43	1614
27.44	1595
27.45	1598
27.46	1636
27.47	1646
27.48	1637
27.49	1608
27.5	1574
27.51	1567
27.52	1565
27.53	1560
27.54	1533
27.55	1544
27.56	1586
27.57	1599
27.58	1590
27.59	1580
27.6	1567
27.61	1542
27.62	1541
27.63	1586
27.64	1582
27.65	1555
27.66	1570
27.67	1566
27.68	1569
27.69	1572
27.7	1574
27.71	1602
27.72	1636
27.73	1649
27.74	1586
27.75	1563
27.76	1571
27.77	1591
27.78	1617
27.79	1589
27.8	1575
27.81	1573
27.82	1546
27.83	1552
27.84	1569
27.85	1586
27.86	1622
27.87	1599
27.88	1557
27.89	1553
27.9	1573
27.91	1554
27.92	1518
27.93	1517
27.94	1510
27.95	1535
27.96	1570
27.97	1600
27.98	1599
27.99	1576
28.0	1562
28.01	1564
28.02	1566
28.03	1578
28.04	1595
28.05	1584
28.06	1577
28.07	1582
28.08	1565
28.09	1567
28.1	1586
28.11	1574
28.12	1541
28.13	1546
28.14	1553
28.15	1541
28.16	1541
28.17	1579
28.18	1556
28.19	1554
28.2	1589
28.21	1591
28.22	1600
28.23	1570
28.24	1531
28.25	1547
28.26	1551
28.27	1529
28.28	1509
28.29	1515
28.3	1529
28.31	1536
28.32	1560
28.33	1587
28.34	1581
28.35	1563
28.36	1547
28.37	1536
28.38	1535
28.39	1538
28.4	1538
28.41	1530
28.42	1535
28.43	1537
28.44	1529
28.45	1512
28.46	1514
28.47	1539
28.48	1554
28.49	1555
28.5	1518
28.51	1533
28.52	1575
28.53	1585
28.54	1568
28.55	1544
28.56	1551
28.57	1548
28.58	1546
28.59	1531
28.6	1535
28.61	1548
28.62	1538
28.63	1537
28.64	1543
28.65	1553
28.66	1535
28.67	1518
28.68	1517
28.69	1517
28.7	1525
28.71	1542
28.72	1561
28.73	1546
28.74	1536
28.75	1541
28.76	1575
28.77	1575
28.78	1561
28.79	1526
28.8	1555
28.81	1548
28.82	1545
28.83	1526
28.84	1536
28.85	1520
28.86	1491
28.87	1511
28.88	1545
28.89	1547
28.9	1546
28.91	1567
28.92	1575
28.93	1581
28.94	1558
28.95	1539
28.96	1560
28.97	1556
28.98	1506
28.99	1471
29.0	1477
29.01	1539
29.02	1557
29.03	1527
29.04	1516
29.05	1531
29.06	1527
29.07	1531
29.08	1555
29.09	1537
29.1	1525
29.11	1528
29.12	1518
29.13	1485
29.14	1512
29.15	1529
29.16	1520
29.17	1523
29.18	1547
29.19	1549
29.2	1532
29.21	1584
29.22	1545
29.23	1546
29.24	1552
29.25	1547
29.26	1518
29.27	1516
29.28	1554
29.29	1573
29.3	1540
29.31	1543
29.32	1565
29.33	1511
29.34	1501
29.35	1516
29.36	1529
29.37	1549
29.38	1528
29.39	1513
29.4	1523
29.41	1551
29.42	1512
29.43	1501
29.44	1531
29.45	1536
29.46	1536
29.47	1478
29.48	1463
29.49	1506
29.5	1514
29.51	1493
29.52	1513
29.53	1523
29.54	1519
29.55	1509
29.56	1531
29.57	1535
29.58	1549
29.59	1546
29.6	1466
29.61	1492
29.62	1546
29.63	1518
29.64	1499
29.65	1509
29.66	1480
29.67	1482
29.68	1476
29.69	1472
29.7	1459
29.71	1491
29.72	1538
29.73	1503
29.74	1496
29.75	1526
29.76	1496
29.77	1477
29.78	1480
29.79	1512
29.8	1527
29.81	1494
29.82	1491
29.83	1528
29.84	1511
29.85	1495
29.86	1501
29.87	1509
29.88	1504
29.89	1449
29.9	1451
29.91	1447
29.92	1489
29.93	1517
29.94	1489
29.95	1477
29.96	1462
29.97	1503
29.98	1503
29.99	1471
30.0	1508
30.01	1525
30.02	1505
30.03	1520
30.04	1507
30.05	1456
30.06	1518
30.07	1542
30.08	1494
30.09	1467
30.1	1465
30.11	1458
30.12	1517
30.13	1518
30.14	1485
30.15	1476
30.16	1457
30.17	1496
30.18	1498
30.19	1504
30.2	1523
30.21	1519
30.22	1501
30.23	1486
30.24	1432
30.25	1458
30.26	1480
30.27	1491
30.28	1476
30.29	1570
30.3	1513
30.31	1476
30.32	1506
30.33	1489
30.34	1492
30.35	1465
30.36	1458
30.37	1459
30.38	1451
30.39	1482
30.4	1496
30.41	1464
30.42	1462
30.43	1445
30.44	1433
30.45	1455
30.46	1473
30.47	1511
30.48	1460
30.49	1469
30.5	1528
30.51	1487
30.52	1482
30.53	1474
30.54	1484
30.55	1504
30.56	1491
30.57	1498
30.58	1527
30.59	1509
30.6	1488
30.61	1468
30.62	1455
30.63	1537
30.64	1592
30.65	1523
30.66	1537
30.67	1546
30.68	1525
30.69	1491
30.7	1527
30.71	1553
30.72	1535
30.73	1544
30.74	1550
30.75	1497
30.76	1488
30.77	1509
30.78	1483
30.79	1507
30.8	1534
30.81	1511
30.82	1517
30.83	1513
30.84	1518
30.85	1459
30.86	1480
30.87	1483
30.88	1493
30.89	1512
30.9	1488
30.91	1477
30.92	1440
30.93	1458
30.94	1417
30.95	1463
30.96	1491
30.97	1457
30.98	1469
30.99	1466
31.0	1501
31.01	1523
31.02	1482
31.03	1466
31.04	1487
31.05	1452
31.06	1472
31.07	1501
31.08	1469
31.09	1470
31.1	1439
31.11	1444
31.12	1503
31.13	1473
31.14	1472
31.15	1500
31.16	1487
31.17	1452
31.18	1480
31.19	1488
31.2	1490
31.21	1453
31.22	1481
31.23	1454
31.24	1430
31.25	1472
31.26	1487
31.27	1447
31.28	1442
31.29	1461
31.3	1459
31.31	1435
31.32	1463
31.33	1461
31.34	1450
31.35	1431
31.36	1422
31.37	1515
31.38	1483
31.39	1468
31.4	1469
31.41	1468
31.42	1451
31.43	1428
31.44	1452
31.45	1467
31.46	1502
31.47	1475
31.48	1443
31.49	1453
31.5	1461
31.51	1461
31.52	1445
31.53	1452
31.54	1477
31.55	1422
31.56	1462
31.57	1514
31.58	1502
31.59	1444
31.6	1438
31.61	1497
31.62	1457
31.63	1495
31.64	1470
31.65	1423
31.66	1443
31.67	1449
31.68	1438
31.69	1418
31.7	1430
31.71	1416
31.72	1382
31.73	1440
31.74	1452
31.75	1415
31.76	1467
31.77	1518
31.78	1452
31.79	1427
31.8	1440
31.81	1443
31.82	1429
31.83	1433
31.84	1456
31.85	1488
31.86	1486
31.87	1441
31.88	1429
31.89	1437
31.9	1389
31.91	1449
31.92	1449
31.93	1465
31.94	1409
31.95	1454
31.96	1450
31.97	1469
31.98	1450
31.99	1477
32.0	1473
32.01	1459
32.02	1446
32.03	1432
32.04	1454
32.05	1452
32.06	1444
32.07	1404
32.08	1400
32.09	1442
32.1	1479
32.11	1502
32.12	1511
32.13	1425
32.14	1421
32.15	1431
32.16	1415
32.17	1427
32.18	1455
32.19	1457
32.2	1467
32.21	1459
32.22	1450
32.23	1464
32.24	1448
32.25	1440
32.26	1478
32.27	1461
32.28	1457
32.29	1472
32.3	1449
32.31	1433
32.32	1438
32.33	1444
32.34	1435
32.35	1418
32.36	1435
32.37	1465
32.38	1480
32.39	1485
32.4	1461
32.41	1453
32.42	1429
32.43	1471
32.44	1433
32.45	1423
32.46	1445
32.47	1474
32.48	1464
32.49	1423
32.5	1394
32.51	1409
32.52	1451
32.53	1434
32.54	1425
32.55	1458
32.56	1468
32.57	1464
32.58	1472
32.59	1511
32.6	1464
32.61	1465
32.62	1423
32.63	1428
32.64	1390
32.65	1421
32.66	1433
32.67	1396
32.68	1464
32.69	1492
32.7	1454
32.71	1419
32.72	1411
32.73	1423
32.74	1414
32.75	1441
32.76	1405
32.77	1370
32.78	1469
32.79	1444
32.8	1429
32.81	1463
32.82	1474
32.83	1482
32.84	1414
32.85	1404
32.86	1454
32.87	1438
32.88	1411
32.89	1437
32.9	1460
32.91	1451
32.92	1426
32.93	1458
32.94	1463
32.95	1460
32.96	1412
32.97	1467
32.98	1448
32.99	1450
33.0	1435
33.01	1426
33.02	1406
33.03	1416
33.04	1435
33.05	1397
33.06	1426
33.07	1412
33.08	1419
33.09	1491
33.1	1517
33.11	1450
33.12	1407
33.13	1421
33.14	1450
33.15	1438
33.16	1445
33.17	1454
33.18	1444
33.19	1402
33.2	1418
33.21	1419
33.22	1416
33.23	1425
33.24	1451
33.25	1461
33.26	1490
33.27	1433
33.28	1396
33.29	1423
33.3	1465
33.31	1451
33.32	1474
33.33	1436
33.34	1388
33.35	1401
33.36	1455
33.37	1475
33.38	1457
33.39	1421
33.4	1406
33.41	1379
33.42	1424
33.43	1445
33.44	1423
33.45	1401
33.46	1410
33.47	1440
33.48	1431
33.49	1417
33.5	1414
33.51	1450
33.52	1461
33.53	1376
33.54	1364
33.55	1418
33.56	1446
33.57	1456
33.58	1460
33.59	1447
33.6	1440
33.61	1422
33.62	1401
33.63	1452
33.64	1445
33.65	1480
33.66	1491
33.67	1474
33.68	1443
33.69	1397
33.7	1406
33.71	1403
33.72	1421
33.73	1457
33.74	1468
33.75	1453
33.76	1447
33.77	1464
33.78	1434
33.79	1445
33.8	1448
33.81	1418
33.82	1418
33.83	1457
33.84	1453
33.85	1471
33.86	1454
33.87	1409
33.88	1402
33.89	1419
33.9	1421
33.91	1418
33.92	1431
33.93	1459
33.94	1506
33.95	1474
33.96	1430
33.97	1416
33.98	1403
33.99	1410
34.0	1400
34.01	1388
34.02	1374
34.03	1392
34.04	1397
34.05	1413
34.06	1407
34.07	1446
34.08	1377
34.09	1377
34.1	1416
34.11	1429
34.12	1440
34.13	1456
34.14	1427
34.15	1424
34.16	1444
34.17	1435
34.18	1409
34.19	1405
34.2	1455
34.21	1464
34.22	1427
34.23	1406
34.24	1427
34.25	1452
34.26	1424
34.27	1435
34.28	1441
34.29	1380
34.3	1387
34.31	1429
34.32	1409
34.33	1398
34.34	1389
34.35	1366
34.36	1379
34.37	1438
34.38	1457
34.39	1420
34.4	1392
34.41	1401
34.42	1415
34.43	1444
34.44	1419
34.45	1395
34.46	1367
34.47	1359
34.48	1388
34.49	1421
34.5	1393
34.51	1436
34.52	1443
34.53	1420
34.54	1406
34.55	1430
34.56	1427
34.57	1424
34.58	1414
34.59	1393
34.6	1401
34.61	1407
34.62	1422
34.63	1447
34.64	1428
34.65	1409
34.66	1412
34.67	1460
34.68	1497
34.69	1488
34.7	1468
34.71	1442
34.72	1406
34.73	1390
34.74	1399
34.75	1387
34.76	1384
34.77	1406
34.78	1404
34.79	1414
34.8	1468
34.81	1500
34.82	1449
34.83	1421
34.84	1445
34.85	1450
34.86	1483
34.87	1480
34.88	1406
34.89	1411
34.9	1429
34.91	1455
34.92	1483
34.93	1448
34.94	1429
34.95	1450
34.96	1478
34.97	1513
34.98	1496
34.99	1478
35.0	1496
35.01	1501
35.02	1474
35.03	1482
35.04	1497
35.05	1476
35.06	1497
35.07	1488
35.08	1459
35.09	1480
35.1	1473
35.11	1485
35.12	1452
35.13	1463
35.14	1502
35.15	1495
35.16	1481
35.17	1466
35.18	1460
35.19	1446
35.2	1454
35.21	1464
35.22	1443
35.23	1449
35.24	1476
35.25	1466
35.26	1427
35.27	1435
35.28	1444
35.29	1438
35.3	1463
35.31	1462
35.32	1453
35.33	1487
35.34	1490
35.35	1472
35.36	1482
35.37	1495
35.38	1491
35.39	1514
35.4	1522
35.41	1533
35.42	1534
35.43	1509
35.44	1482
35.45	1461
35.46	1448
35.47	1446
35.48	1470
35.49	1491
35.5	1515
35.51	1489
35.52	1466
35.53	1459
35.54	1454
35.55	1472
35.56	1453
35.57	1476
35.58	1505
35.59	1487
35.6	1470
35.61	1487
35.62	1496
35.63	1485
35.64	1510
35.65	1540
35.66	1506
35.67	1477
35.68	1486
35.69	1501
35.7	1520
35.71	1516
35.72	1517
35.73	1525
35.74	1559
35.75	1570
35.76	1564
35.77	1587
35.78	1612
35.79	1626
35.8	1630
35.81	1646
35.82	1640
35.83	1640
35.84	1648
35.85	1636
35.86	1673
35.87	1740
35.88	1777
35.89	1778
35.9	1778
35.91	1844
35.92	1918
35.93	1934
35.94	1906
35.95	1929
35.96	1998
35.97	2119
35.98	2251
35.99	2355
36.0	2459
36.01	2600
36.02	2755
36.03	2930
36.04	3187
36.05	3471
36.06	3813
36.07	4202
36.08	4605
36.09	5054
36.1	5620
36.11	6247
36.12	6836
36.13	7372
36.14	7888
36.15	8431
36.16	8932
36.17	9269
36.18	9398
36.19	9315
36.2	9024
36.21	8728
36.22	8482
36.23	8133
36.24	7750
36.25	7380
36.26	7001
36.27	6613
36.28	6154
36.29	5738
36.3	5348
36.31	4878
36.32	4411
36.33	4002
36.34	3612
36.35	3280
36.36	3049
36.37	2860
36.38	2669
36.39	2485
36.4	2356
36.41	2274
36.42	2214
36.43	2155
36.44	2084
36.45	1995
36.46	1927
36.47	1892
36.48	1841
36.49	1803
36.5	1795
36.51	1803
36.52	1762
36.53	1692
36.54	1684
36.55	1703
36.56	1731
36.57	1714
36.58	1660
36.59	1610
36.6	1587
36.61	1587
36.62	1573
36.63	1581
36.64	1587
36.65	1566
36.66	1552
36.67	1567
36.68	1583
36.69	1579
36.7	1551
36.71	1512
36.72	1492
36.73	1481
36.74	1492
36.75	1510
36.76	1503
36.77	1510
36.78	1518
36.79	1495
36.8	1472
36.81	1489
36.82	1519
36.83	1547
36.84	1524
36.85	1497
36.86	1533
36.87	1509
36.88	1478
36.89	1488
36.9	1489
36.91	1493
36.92	1500
36.93	1497
36.94	1486
36.95	1482
36.96	1499
36.97	1537
36.98	1562
36.99	1548
37.0	1519
37.01	1528
37.02	1518
37.03	1503
37.04	1527
37.05	1504
37.06	1489
37.07	1501
37.08	1531
37.09	1543
37.1	1520
37.11	1517
37.12	1499
37.13	1498
37.14	1513
37.15	1478
37.16	1433
37.17	1450
37.18	1462
37.19	1453
37.2	1471
37.21	1498
37.22	1504
37.23	1494
37.24	1480
37.25	1488
37.26	1482
37.27	1465
37.28	1472
37.29	1468
37.3	1465
37.31	1476
37.32	1471
37.33	1491
37.34	1507
37.35	1506
37.36	1487
37.37	1464
37.38	1439
37.39	1450
37.4	1495
37.41	1500
37.42	1505
37.43	1492
37.44	1464
37.45	1476
37.46	1485
37.47	1523
37.48	1509
37.49	1476
37.5	1482
37.51	1512
37.52	1543
37.53	1513
37.54	1503
37.55	1512
37.56	1471
37.57	1470
37.58	1520
37.59	1566
37.6	1595
37.61	1636
37.62	1609
37.63	1539
37.64	1533
37.65	1558
37.66	1572
37.67	1589
37.68	1655
37.69	1702
37.7	1761
37.71	1803
37.72	1812
37.73	1879
37.74	2030
37.75	2143
37.76	2267
37.77	2441
37.78	2592
37.79	2699
37.8	2902
37.81	3121
37.82	3193
37.83	3284
37.84	3413
37.85	3406
37.86	3283
37.87	3206
37.88	3068
37.89	2911
37.9	2798
37.91	2710
37.92	2661
37.93	2623
37.94	2511
37.95	2371
37.96	2334
37.97	2247
37.98	2091
37.99	1944
38.0	1857
38.01	1803
38.02	1721
38.03	1644
38.04	1595
38.05	1592
38.06	1571
38.07	1538
38.08	1578
38.09	1540
38.1	1492
38.11	1493
38.12	1506
38.13	1489
38.14	1473
38.15	1503
38.16	1474
38.17	1467
38.18	1484
38.19	1482
38.2	1462
38.21	1446
38.22	1457
38.23	1460
38.24	1439
38.25	1443
38.26	1451
38.27	1445
38.28	1431
38.29	1414
38.3	1451
38.31	1475
38.32	1463
38.33	1462
38.34	1484
38.35	1456
38.36	1461
38.37	1440
38.38	1399
38.39	1404
38.4	1416
38.41	1431
38.42	1462
38.43	1484
38.44	1481
38.45	1439
38.46	1409
38.47	1415
38.48	1467
38.49	1503
38.5	1460
38.51	1425
38.52	1426
38.53	1436
38.54	1405
38.55	1411
38.56	1433
38.57	1431
38.58	1390
38.59	1380
38.6	1413
38.61	1423
38.62	1418
38.63	1426
38.64	1447
38.65	1452
38.66	1411
38.67	1448
38.68	1439
38.69	1407
38.7	1438
38.71	1460
38.72	1431
38.73	1413
38.74	1425
38.75	1415
38.76	1406
38.77	1446
38.78	1453
38.79	1417
38.8	1412
38.81	1432
38.82	1410
38.83	1383
38.84	1408
38.85	1420
38.86	1400
38.87	1411
38.88	1418
38.89	1447
38.9	1455
38.91	1434
38.92	1444
38.93	1415
38.94	1397
38.95	1404
38.96	1402
38.97	1434
38.98	1438
38.99	1464
39.0	1439
39.01	1422
39.02	1403
39.03	1402
39.04	1409
39.05	1425
39.06	1410
39.07	1422
39.08	1424
39.09	1431
39.1	1411
39.11	1419
39.12	1407
39.13	1378
39.14	1418
39.15	1437
39.16	1436
39.17	1396
39.18	1417
39.19	1418
39.2	1426
39.21	1394
39.22	1409
39.23	1420
39.24	1415
39.25	1426
39.26	1464
39.27	1478
39.28	1433
39.29	1386
39.3	1410
39.31	1418
39.32	1463
39.33	1466
39.34	1482
39.35	1470
39.36	1425
39.37	1425
39.38	1414
39.39	1424
39.4	1429
39.41	1397
39.42	1370
39.43	1425
39.44	1445
39.45	1429
39.46	1413
39.47	1420
39.48	1427
39.49	1403
39.5	1440
39.51	1488
39.52	1494
39.53	1441
39.54	1398
39.55	1399
39.56	1460
39.57	1487
39.58	1420
39.59	1423
39.6	1380
39.61	1371
39.62	1407
39.63	1412
39.64	1425
39.65	1423
39.66	1428
39.67	1407
39.68	1412
39.69	1396
39.7	1383
39.71	1401
39.72	1446
39.73	1438
39.74	1419
39.75	1466
39.76	1420
39.77	1386
39.78	1417
39.79	1415
39.8	1391
39.81	1371
39.82	1446
39.83	1460
39.84	1459
39.85	1426
39.86	1422
39.87	1411
39.88	1410
39.89	1433
39.9	1434
39.91	1406
39.92	1407
39.93	1416
39.94	1409
39.95	1433
39.96	1400
39.97	1399
39.98	1421
39.99	1423
40.0	1440
40.01	1444
40.02	1402
40.03	1402
40.04	1435
40.05	1424
40.06	1432
40.07	1428
40.08	1406
40.09	1400
40.1	1427
40.11	1423
40.12	1390
40.13	1391
40.14	1415
40.15	1427
40.16	1451
40.17	1456
40.18	1451
40.19	1423
40.2	1441
40.21	1414
40.22	1431
40.23	1393
40.24	1434
40.25	1424
40.26	1412
40.27	1385
40.28	1388
40.29	1421
40.3	1416
40.31	1437
40.32	1431
40.33	1413
40.34	1435
40.35	1479
40.36	1448
40.37	1423
40.38	1444
40.39	1422
40.4	1415
40.41	1439
40.42	1439
40.43	1440
40.44	1448
40.45	1433
40.46	1433
40.47	1462
40.48	1515
40.49	1528
40.5	1535
40.51	1513
40.52	1539
40.53	1512
40.54	1498
40.55	1534
40.56	1528
40.57	1543
40.58	1544
40.59	1539
40.6	1528
40.61	1477
40.62	1475
40.63	1469
40.64	1512
40.65	1515
40.66	1473
40.67	1508
40.68	1444
40.69	1495
40.7	1484
40.71	1424
40.72	1399
40.73	1411
40.74	1437
40.75	1405
40.76	1416
40.77	1440
40.78	1418
40.79	1408
40.8	1434
40.81	1429
40.82	1411
40.83	1400
40.84	1448
40.85	1434
40.86	1439
40.87	1449
40.88	1409
40.89	1403
40.9	1392
40.91	1378
40.92	1404
40.93	1418
40.94	1414
40.95	1421
40.96	1415
40.97	1393
40.98	1419
40.99	1385
41.0	1406
41.01	1402
41.02	1391
41.03	1397
41.04	1422
41.05	1424
41.06	1398
41.07	1355
41.08	1390
41.09	1384
41.1	1398
41.11	1360
41.12	1387
41.13	1401
41.14	1394
41.15	1396
41.16	1357
41.17	1360
41.18	1364
41.19	1347
41.2	1388
41.21	1438
41.22	1396
41.23	1389
41.24	1441
41.25	1449
41.26	1437
41.27	1441
41.28	1452
41.29	1367
41.3	1359
41.31	1357
41.32	1344
41.33	1373
41.34	1412
41.35	1386
41.36	1409
41.37	1434
41.38	1396
41.39	1378
41.4	1408
41.41	1437
41.42	1446
41.43	1419
41.44	1413
41.45	1394
41.46	1411
41.47	1427
41.48	1435
41.49	1402
41.5	1376
41.51	1404
41.52	1416
41.53	1425
41.54	1431
41.55	1469
41.56	1455
41.57	1427
41.58	1403
41.59	1401
41.6	1425
41.61	1413
41.62	1425
41.63	1440
41.64	1403
41.65	1424
41.66	1416
41.67	1422
41.68	1395
41.69	1394
41.7	1421
41.71	1419
41.72	1439
41.73	1426
41.74	1414
41.75	1430
41.76	1475
41.77	1403
41.78	1384
41.79	1434
41.8	1465
41.81	1429
41.82	1419
41.83	1428
41.84	1397
41.85	1365
41.86	1408
41.87	1459
41.88	1403
41.89	1388
41.9	1400
41.91	1397
41.92	1420
41.93	1410
41.94	1442
41.95	1432
41.96	1351
41.97	1423
41.98	1395
41.99	1421
42.0	1435
42.01	1411
42.02	1385
42.03	1454
42.04	1421
42.05	1379
42.06	1415
42.07	1483
42.08	1393
42.09	1392
42.1	1419
42.11	1428
42.12	1446
42.13	1406
42.14	1369
42.15	1372
42.16	1430
42.17	1471
42.18	1437
42.19	1457
42.2	1415
42.21	1370
42.22	1376
42.23	1412
42.24	1409
42.25	1427
42.26	1418
42.27	1422
42.28	1399
42.29	1458
42.3	1484
42.31	1461
42.32	1432
42.33	1444
42.34	1421
42.35	1424
42.36	1463
42.37	1416
42.38	1381
42.39	1417
42.4	1432
42.41	1438
42.42	1450
42.43	1454
42.44	1412
42.45	1412
42.46	1416
42.47	1422
42.48	1444
42.49	1432
42.5	1442
42.51	1399
42.52	1445
42.53	1483
42.54	1478
42.55	1420
42.56	1428
42.57	1457
42.58	1509
42.59	1490
42.6	1446
42.61	1466
42.62	1449
42.63	1459
42.64	1466
42.65	1436
42.66	1452
42.67	1458
42.68	1467
42.69	1478
42.7	1474
42.71	1452
42.72	1436
42.73	1430
42.74	1441
42.75	1448
42.76	1396
42.77	1405
42.78	1379
42.79	1425
42.8	1419
42.81	1424
42.82	1479
42.83	1449
42.84	1465
42.85	1458
42.86	1492
42.87	1479
42.88	1479
42.89	1473
42.9	1474
42.91	1481
42.92	1459
42.93	1457
42.94	1474
42.95	1474
42.96	1425
42.97	1453
42.98	1492
42.99	1521
43.0	1480
43.01	1435
43.02	1478
43.03	1487
43.04	1455
43.05	1442
43.06	1416
43.07	1429
43.08	1447
43.09	1451
43.1	1424
43.11	1502
43.12	1523
43.13	1470
43.14	1456
43.15	1481
43.16	1517
43.17	1493
43.18	1474
43.19	1453
43.2	1505
43.21	1492
43.22	1468
43.23	1432
43.24	1471
43.25	1502
43.26	1514
43.27	1512
43.28	1507
43.29	1525
43.3	1530
43.31	1537
43.32	1514
43.33	1512
43.34	1492
43.35	1507
43.36	1486
43.37	1546
43.38	1529
43.39	1479
43.4	1529
43.41	1548
43.42	1513
43.43	1526
43.44	1525
43.45	1526
43.46	1521
43.47	1544
43.48	1599
43.49	1603
43.5	1625
43.51	1648
43.52	1653
43.53	1685
43.54	1649
43.55	1693
43.56	1721
43.57	1775
43.58	1772
43.59	1779
43.6	1800
43.61	1844
43.62	1854
43.63	1914
43.64	1917
43.65	1934
43.66	1986
43.67	1978
43.68	2035
43.69	2194
43.7	2276
43.71	2276
43.72	2282
43.73	2366
43.74	2496
43.75	2581
43.76	2625
43.77	2765
43.78	2935
43.79	3161
43.8	3330
43.81	3526
43.82	3792
43.83	4060
43.84	4314
43.85	4704
43.86	5114
43.87	5523
43.88	6058
43.89	6609
43.9	7142
43.91	7715
43.92	8234
43.93	8805
43.94	9202
43.95	9458
43.96	9816
43.97	9944
43.98	9814
43.99	9758
44.0	9551
44.01	9321
44.02	9037
44.03	8775
44.04	8406
44.05	8124
44.06	7961
44.07	7694
44.08	7343
44.09	7072
44.1	6735
44.11	6309
44.12	5850
44.13	5385
44.14	4973
44.15	4682
44.16	4394
44.17	4060
44.18	3813
44.19	3637
44.2	3355
44.21	3195
44.22	3073
44.23	2946
44.24	2842
44.25	2724
44.26	2622
44.27	2482
44.28	2386
44.29	2345
44.3	2292
44.31	2211
44.32	2160
44.33	2073
44.34	2046
44.35	2075
44.36	2075
44.37	1984
44.38	1930
44.39	1892
44.4	1892
44.41	1904
44.42	1850
44.43	1796
44.44	1780
44.45	1740
44.46	1729
44.47	1705
44.48	1677
44.49	1642
44.5	1655
44.51	1666
44.52	1609
44.53	1603
44.54	1599
44.55	1654
44.56	1655
44.57	1630
44.58	1646
44.59	1655
44.6	1607
44.61	1572
44.62	1610
44.63	1619
44.64	1596
44.65	1572
44.66	1577
44.67	1594
44.68	1572
44.69	1596
44.7	1564
44.71	1538
44.72	1521
44.73	1499
44.74	1533
44.75	1594
44.76	1622
44.77	1588
44.78	1544
44.79	1530
44.8	1531
44.81	1562
44.82	1579
44.83	1591
44.84	1547
44.85	1552
44.86	1501
44.87	1498
44.88	1506
44.89	1506
44.9	1498
44.91	1525
44.92	1508
44.93	1480
44.94	1482
44.95	1519
44.96	1492
44.97	1506
44.98	1514
44.99	1494
45.0	1481
45.01	1477
45.02	1487
45.03	1509
45.04	1517
45.05	1478
45.06	1469
45.07	1482
45.08	1501
45.09	1483
45.1	1468
45.11	1460
45.12	1526
45.13	1525
45.14	1504
45.15	1461
45.16	1480
45.17	1474
45.18	1477
45.19	1487
45.2	1478
45.21	1453
45.22	1451
45.23	1459
45.24	1452
45.25	1439
45.26	1444
45.27	1463
45.28	1482
45.29	1510
45.3	1496
45.31	1433
45.32	1438
45.33	1490
45.34	1505
45.35	1483
45.36	1486
45.37	1480
45.38	1463
45.39	1461
45.4	1485
45.41	1498
45.42	1489
45.43	1470
45.44	1485
45.45	1510
45.46	1489
45.47	1482
45.48	1488
45.49	1478
45.5	1465
45.51	1482
45.52	1482
45.53	1479
45.54	1488
45.55	1492
45.56	1474
45.57	1461
45.58	1437
45.59	1427
45.6	1438
45.61	1477
45.62	1472
45.63	1447
45.64	1467
45.65	1490
45.66	1479
45.67	1464
45.68	1442
45.69	1471
45.7	1515
45.71	1482
45.72	1483
45.73	1485
45.74	1468
45.75	1463
45.76	1445
45.77	1448
45.78	1448
45.79	1448
45.8	1452
45.81	1497
45.82	1536
45.83	1534
45.84	1503
45.85	1495
45.86	1481
45.87	1488
45.88	1505
45.89	1516
45.9	1517
45.91	1480
45.92	1472
45.93	1486
45.94	1509
45.95	1520
45.96	1516
45.97	1507
45.98	1498
45.99	1480
46.0	1486
46.01	1480
46.02	1463
46.03	1465
46.04	1477
46.05	1449
46.06	1448
46.07	1445
46.08	1435
46.09	1453
46.1	1461
46.11	1507
46.12	1505
46.13	1444
46.14	1447
46.15	1461
46.16	1450
46.17	1456
46.18	1440
46.19	1434
46.2	1434
46.21	1479
46.22	1509
46.23	1458
46.24	1425
46.25	1455
46.26	1461
46.27	1435
46.28	1434
46.29	1445
46.3	1477
46.31	1477
46.32	1444
46.33	1425
46.34	1434
46.35	1470
46.36	1483
46.37	1436
46.38	1446
46.39	1444
46.4	1442
46.41	1446
46.42	1466
46.43	1475
46.44	1447
46.45	1421
46.46	1416
46.47	1402
46.48	1438
46.49	1481
46.5	1470
46.51	1439
46.52	1447
46.53	1461
46.54	1477
46.55	1455
46.56	1451
46.57	1486
46.58	1488
46.59	1450
46.6	1436
46.61	1452
46.62	1504
46.63	1478
46.64	1457
46.65	1460
46.66	1467
46.67	1443
46.68	1434
46.69	1434
46.7	1436
46.71	1449
46.72	1426
46.73	1436
46.74	1467
46.75	1466
46.76	1472
46.77	1469
46.78	1458
46.79	1424
46.8	1416
46.81	1436
46.82	1445
46.83	1451
46.84	1457
46.85	1465
46.86	1465
46.87	1444
46.88	1419
46.89	1411
46.9	1399
46.91	1411
46.92	1449
46.93	1446
46.94	1419
46.95	1427
46.96	1437
46.97	1454
46.98	1429
46.99	1397
47.0	1413
47.01	1398
47.02	1393
47.03	1431
47.04	1453
47.05	1434
47.06	1425
47.07	1446
47.08	1450
47.09	1414
47.1	1394
47.11	1393
47.12	1427
47.13	1428
47.14	1422
47.15	1414
47.16	1440
47.17	1428
47.18	1437
47.19	1443
47.2	1427
47.21	1418
47.22	1431
47.23	1422
47.24	1393
47.25	1396
47.26	1451
47.27	1455
47.28	1444
47.29	1487
47.3	1503
47.31	1473
47.32	1464
47.33	1469
47.34	1468
47.35	1463
47.36	1443
47.37	1439
47.38	1437
47.39	1409
47.4	1411
47.41	1430
47.42	1398
47.43	1412
47.44	1429
47.45	1412
47.46	1397
47.47	1426
47.48	1440
47.49	1447
47.5	1456
47.51	1438
47.52	1446
47.53	1451
47.54	1421
47.55	1424
47.56	1411
47.57	1398
47.58	1440
47.59	1455
47.6	1476
47.61	1493
47.62	1497
47.63	1468
47.64	1441
47.65	1453
47.66	1476
47.67	1445
47.68	1415
47.69	1446
47.7	1432
47.71	1415
47.72	1451
47.73	1485
47.74	1484
47.75	1475
47.76	1477
47.77	1485
47.78	1483
47.79	1457
47.8	1476
47.81	1519
47.82	1524
47.83	1554
47.84	1531
47.85	1534
47.86	1514
47.87	1526
47.88	1567
47.89	1545
47.9	1541
47.91	1583
47.92	1617
47.93	1599
47.94	1572
47.95	1580
47.96	1622
47.97	1665
47.98	1708
47.99	1752
48.0	1815
48.01	1835
48.02	1866
48.03	1913
48.04	1943
48.05	2042
48.06	2218
48.07	2394
48.08	2586
48.09	2735
48.1	2847
48.11	2942
48.12	3038
48.13	3107
48.14	3150
48.15	3186
48.16	3168
48.17	3086
48.18	3001
48.19	2903
48.2	2812
48.21	2749
48.22	2707
48.23	2698
48.24	2665
48.25	2587
48.26	2552
48.27	2490
48.28	2417
48.29	2338
48.3	2286
48.31	2245
48.32	2124
48.33	2028
48.34	1957
48.35	1854
48.36	1807
48.37	1790
48.38	1739
48.39	1700
48.4	1683
48.41	1638
48.42	1604
48.43	1584
48.44	1598
48.45	1606
48.46	1570
48.47	1580
48.48	1545
48.49	1538
48.5	1541
48.51	1522
48.52	1533
48.53	1533
48.54	1522
48.55	1534
48.56	1541
48.57	1513
48.58	1480
48.59	1466
48.6	1458
48.61	1478
48.62	1517
48.63	1497
48.64	1480
48.65	1499
48.66	1488
48.67	1487
48.68	1510
48.69	1474
48.7	1415
48.71	1393
48.72	1400
48.73	1456
48.74	1474
48.75	1475
48.76	1482
48.77	1464
48.78	1444
48.79	1440
48.8	1471
48.81	1492
48.82	1487
48.83	1458
48.84	1426
48.85	1432
48.86	1449
48.87	1454
48.88	1459
48.89	1456
48.9	1457
48.91	1448
48.92	1435
48.93	1426
48.94	1433
48.95	1430
48.96	1440
48.97	1444
48.98	1429
48.99	1424
49.0	1431
49.01	1444
49.02	1438
49.03	1426
49.04	1451
49.05	1488
49.06	1460
49.07	1398
49.08	1419
49.09	1406
49.1	1419
49.11	1451
49.12	1438
49.13	1452
49.14	1445
49.15	1405
49.16	1414
49.17	1449
49.18	1462
49.19	1459
49.2	1443
49.21	1431
49.22	1437
49.23	1441
49.24	1459
49.25	1480
49.26	1461
49.27	1435
49.28	1438
49.29	1421
49.3	1425
49.31	1444
49.32	1451
49.33	1452
49.34	1450
49.35	1452
49.36	1460
49.37	1455
49.38	1459
49.39	1446
49.4	1390
49.41	1363
49.42	1398
49.43	1429
49.44	1446
49.45	1465
49.46	1465
49.47	1436
49.48	1434
49.49	1457
49.5	1437
49.51	1422
49.52	1460
49.53	1443
49.54	1398
49.55	1383
49.56	1391
49.57	1424
49.58	1450
49.59	1443
49.6	1436
49.61	1424
49.62	1431
49.63	1419
49.64	1372
49.65	1388
49.66	1419
49.67	1428
49.68	1444
49.69	1444
49.7	1416
49.71	1389
49.72	1433
49.73	1455
49.74	1436
49.75	1445
49.76	1435
49.77	1443
49.78	1447
49.79	1439
49.8	1443
49.81	1444
49.82	1453
49.83	1447
49.84	1442
49.85	1447
49.86	1445
49.87	1461
49.88	1468
49.89	1425
49.9	1401
49.91	1436
49.92	1455
49.93	1433
49.94	1426
49.95	1443
49.96	1440
49.97	1429
49.98	1434
49.99	1448
50.0	1445
50.01	1448
50.02	1459
50.03	1450
50.04	1435
50.05	1428
50.06	1454
50.07	1455
50.08	1418
50.09	1405
50.1	1397
50.11	1384
50.12	1402
50.13	1426
50.14	1456
50.15	1439
50.16	1429
50.17	1441
50.18	1431
50.19	1426
50.2	1417
50.21	1418
50.22	1414
50.23	1399
50.24	1406
50.25	1420
50.26	1419
50.27	1418
50.28	1414
50.29	1417
50.3	1406
50.31	1421
50.32	1446
50.33	1409
50.34	1397
50.35	1397
50.36	1395
50.37	1419
50.38	1438
50.39	1441
50.4	1430
50.41	1433
50.42	1445
50.43	1434
50.44	1425
50.45	1415
50.46	1421
50.47	1441
50.48	1429
50.49	1434
50.5	1453
50.51	1433
50.52	1424
50.53	1426
50.54	1431
50.55	1414
50.56	1397
50.57	1431
50.58	1455
50.59	1441
50.6	1421
50.61	1431
50.62	1427
50.63	1434
50.64	1423
50.65	1408
50.66	1410
50.67	1412
50.68	1439
50.69	1433
50.7	1427
50.71	1418
50.72	1397
50.73	1399
50.74	1415
50.75	1441
50.76	1462
50.77	1446
50.78	1416
50.79	1415
50.8	1427
50.81	1429
50.82	1438
50.83	1446
50.84	1441
50.85	1454
50.86	1441
50.87	1411
50.88	1405
50.89	1418
50.9	1433
50.91	1421
50.92	1411
50.93	1427
50.94	1438
50.95	1428
50.96	1452
50.97	1483
50.98	1463
50.99	1440
51.0	1456
51.01	1448
51.02	1437
51.03	1485
51.04	1495
51.05	1456
51.06	1429
51.07	1425
51.08	1437
51.09	1419
51.1	1391
51.11	1396
51.12	1412
51.13	1441
51.14	1466
51.15	1455
51.16	1433
51.17	1415
51.18	1445
51.19	1474
51.2	1455
51.21	1421
51.22	1398
51.23	1420
51.24	1458
51.25	1461
51.26	1452
51.27	1450
51.28	1415
51.29	1398
51.3	1415
51.31	1416
51.32	1402
51.33	1393
51.34	1410
51.35	1406
51.36	1420
51.37	1440
51.38	1434
51.39	1423
51.4	1405
51.41	1433
51.42	1459
51.43	1459
51.44	1467
51.45	1463
51.46	1444
51.47	1438
51.48	1450
51.49	1460
51.5	1443
51.51	1449
51.52	1459
51.53	1438
51.54	1455
51.55	1486
51.56	1470
51.57	1438
51.58	1412
51.59	1418
51.6	1443
51.61	1470
51.62	1464
51.63	1441
51.64	1426
51.65	1428
51.66	1436
51.67	1430
51.68	1445
51.69	1445
51.7	1452
51.71	1465
51.72	1420
51.73	1397
51.74	1425
51.75	1426
51.76	1442
51.77	1467
51.78	1472
51.79	1471
51.8	1467
51.81	1456
51.82	1416
51.83	1428
51.84	1452
51.85	1432
51.86	1427
51.87	1432
51.88	1429
51.89	1408
51.9	1407
51.91	1429
51.92	1445
51.93	1449
51.94	1451
51.95	1435
51.96	1470
51.97	1534
51.98	1517
51.99	1441
52.0	1414
52.01	1444
52.02	1466
52.03	1454
52.04	1452
52.05	1453
52.06	1426
52.07	1412
52.08	1406
52.09	1442
52.1	1460
52.11	1436
52.12	1431
52.13	1421
52.14	1428
52.15	1428
52.16	1430
52.17	1456
52.18	1469
52.19	1457
52.2	1451
52.21	1451
52.22	1473
52.23	1464
52.24	1440
52.25	1433
52.26	1430
52.27	1411
52.28	1411
52.29	1427
52.3	1437
52.31	1444
52.32	1416
52.33	1403
52.34	1414
52.35	1414
52.36	1452
52.37	1452
52.38	1417
52.39	1420
52.4	1425
52.41	1432
52.42	1455
52.43	1471
52.44	1456
52.45	1436
52.46	1436
52.47	1454
52.48	1461
52.49	1430
52.5	1399
52.51	1420
52.52	1439
52.53	1418
52.54	1413
52.55	1417
52.56	1409
52.57	1391
52.58	1413
52.59	1444
52.6	1446
52.61	1421
52.62	1429
52.63	1447
52.64	1448
52.65	1465
52.66	1477
52.67	1484
52.68	1477
52.69	1480
52.7	1468
52.71	1432
52.72	1430
52.73	1477
52.74	1489
52.75	1444
52.76	1432
52.77	1422
52.78	1411
52.79	1434
52.8	1460
52.81	1445
52.82	1433
52.83	1447
52.84	1468
52.85	1474
52.86	1451
52.87	1431
52.88	1428
52.89	1428
52.9	1425
52.91	1413
52.92	1422
52.93	1420
52.94	1430
52.95	1454
52.96	1441
52.97	1444
52.98	1454
52.99	1446
53.0	1460
53.01	1456
53.02	1448
53.03	1492
53.04	1517
53.05	1504
53.06	1478
53.07	1464
53.08	1475
53.09	1469
53.1	1434
53.11	1417
53.12	1453
53.13	1468
53.14	1457
53.15	1458
53.16	1440
53.17	1442
53.18	1440
53.19	1424
53.2	1417
53.21	1445
53.22	1472
53.23	1483
53.24	1459
53.25	1414
53.26	1420
53.27	1437
53.28	1435
53.29	1432
53.3	1437
53.31	1449
53.32	1437
53.33	1409
53.34	1425
53.35	1424
53.36	1411
53.37	1416
53.38	1437
53.39	1455
53.4	1447
53.41	1461
53.42	1444
53.43	1430
53.44	1452
53.45	1455
53.46	1430
53.47	1412
53.48	1403
53.49	1403
53.5	1407
53.51	1408
53.52	1434
53.53	1484
53.54	1472
53.55	1420
53.56	1425
53.57	1456
53.58	1475
53.59	1449
53.6	1426
53.61	1430
53.62	1441
53.63	1439
53.64	1474
53.65	1473
53.66	1451
53.67	1420
53.68	1426
53.69	1452
53.7	1468
53.71	1455
53.72	1438
53.73	1469
53.74	1484
53.75	1449
53.76	1440
53.77	1453
53.78	1445
53.79	1452
53.8	1445
53.81	1456
53.82	1467
53.83	1465
53.84	1448
53.85	1429
53.86	1436
53.87	1450
53.88	1449
53.89	1434
53.9	1410
53.91	1410
53.92	1430
53.93	1416
53.94	1404
53.95	1430
53.96	1446
53.97	1451
53.98	1450
53.99	1444
54.0	1464
54.01	1484
54.02	1460
54.03	1428
54.04	1443
54.05	1433
54.06	1426
54.07	1460
54.08	1492
54.09	1489
54.1	1462
54.11	1450
54.12	1433
54.13	1389
54.14	1401
54.15	1482
54.16	1483
54.17	1456
54.18	1480
54.19	1470
54.2	1460
54.21	1464
54.22	1456
54.23	1432
54.24	1428
54.25	1432
54.26	1443
54.27	1429
54.28	1456
54.29	1465
54.3	1450
54.31	1450
54.32	1473
54.33	1471
54.34	1456
54.35	1459
54.36	1477
54.37	1469
54.38	1468
54.39	1470
54.4	1481
54.41	1485
54.42	1444
54.43	1426
54.44	1423
54.45	1419
54.46	1450
54.47	1459
54.48	1469
54.49	1488
54.5	1519
54.51	1500
54.52	1489
54.53	1504
54.54	1507
54.55	1508
54.56	1488
54.57	1436
54.58	1422
54.59	1456
54.6	1459
54.61	1452
54.62	1453
54.63	1452
54.64	1456
54.65	1467
54.66	1429
54.67	1427
54.68	1460
54.69	1446
54.7	1458
54.71	1466
54.72	1477
54.73	1467
54.74	1461
54.75	1451
54.76	1443
54.77	1476
54.78	1478
54.79	1462
54.8	1446
54.81	1449
54.82	1475
54.83	1495
54.84	1459
54.85	1446
54.86	1441
54.87	1431
54.88	1457
54.89	1485
54.9	1478
54.91	1473
54.92	1497
54.93	1515
54.94	1513
54.95	1488
54.96	1458
54.97	1449
54.98	1474
54.99	1476
55.0	1448
55.01	1436
55.02	1451
55.03	1455
55.04	1468
55.05	1477
55.06	1429
55.07	1423
55.08	1457
55.09	1495
55.1	1498
55.11	1485
55.12	1492
55.13	1520
55.14	1525
55.15	1508
55.16	1488
55.17	1474
55.18	1468
55.19	1437
55.2	1445
55.21	1458
55.22	1434
55.23	1429
55.24	1493
55.25	1516
55.26	1527
55.27	1528
55.28	1506
55.29	1485
55.3	1458
55.31	1490
55.32	1500
55.33	1480
55.34	1477
55.35	1501
55.36	1480
55.37	1444
55.38	1452
55.39	1501
55.4	1518
55.41	1493
55.42	1499
55.43	1508
55.44	1491
55.45	1501
55.46	1502
55.47	1498
55.48	1466
55.49	1439
55.5	1474
55.51	1517
55.52	1481
55.53	1471
55.54	1471
55.55	1458
55.56	1438
55.57	1435
55.58	1443
55.59	1431
55.6	1422
55.61	1440
55.62	1492
55.63	1486
55.64	1470
55.65	1472
55.66	1461
55.67	1473
55.68	1500
55.69	1489
55.7	1484
55.71	1462
55.72	1438
55.73	1454
55.74	1495
55.75	1520
55.76	1518
55.77	1498
55.78	1451
55.79	1432
55.8	1463
55.81	1505
55.82	1497
55.83	1462
55.84	1491
55.85	1512
55.86	1477
55.87	1482
55.88	1501
55.89	1485
55.9	1495
55.91	1497
55.92	1479
55.93	1515
55.94	1536
55.95	1520
55.96	1480
55.97	1480
55.98	1510
55.99	1504
56.0	1498
56.01	1518
56.02	1505
56.03	1477
56.04	1463
56.05	1461
56.06	1487
56.07	1501
56.08	1500
56.09	1505
56.1	1549
56.11	1556
56.12	1528
56.13	1511
56.14	1464
56.15	1463
56.16	1501
56.17	1529
56.18	1521
56.19	1520
56.2	1514
56.21	1488
56.22	1487
56.23	1511
56.24	1537
56.25	1514
56.26	1475
56.27	1495
56.28	1519
56.29	1498
56.3	1500
56.31	1492
56.32	1482
56.33	1521
56.34	1541
56.35	1513
56.36	1508
56.37	1484
56.38	1463
56.39	1498
56.4	1513
56.41	1512
56.42	1486
56.43	1496
56.44	1486
56.45	1468
56.46	1473
56.47	1488
56.48	1482
56.49	1468
56.5	1466
56.51	1487
56.52	1512
56.53	1475
56.54	1475
56.55	1504
56.56	1525
56.57	1527
56.58	1538
56.59	1511
56.6	1496
56.61	1482
56.62	1503
56.63	1492
56.64	1525
56.65	1548
56.66	1522
56.67	1492
56.68	1477
56.69	1494
56.7	1500
56.71	1485
56.72	1499
56.73	1499
56.74	1511
56.75	1507
56.76	1478
56.77	1489
56.78	1502
56.79	1499
56.8	1495
56.81	1521
56.82	1530
56.83	1510
56.84	1457
56.85	1461
56.86	1472
56.87	1490
56.88	1508
56.89	1494
56.9	1504
56.91	1528
56.92	1515
56.93	1511
56.94	1506
56.95	1498
56.96	1522
56.97	1528
56.98	1553
56.99	1545
57.0	1518
57.01	1502
57.02	1522
57.03	1532
57.04	1507
57.05	1483
57.06	1502
57.07	1517
57.08	1527
57.09	1546
57.1	1531
57.11	1500
57.12	1463
57.13	1459
57.14	1479
57.15	1526
57.16	1534
57.17	1541
57.18	1506
57.19	1495
57.2	1506
57.21	1499
57.22	1541
57.23	1577
57.24	1574
57.25	1558
57.26	1564
57.27	1551
57.28	1520
57.29	1520
57.3	1513
57.31	1537
57.32	1542
57.33	1531
57.34	1503
57.35	1498
57.36	1512
57.37	1520
57.38	1521
57.39	1553
57.4	1541
57.41	1543
57.42	1516
57.43	1483
57.44	1479
57.45	1522
57.46	1543
57.47	1563
57.48	1557
57.49	1539
57.5	1533
57.51	1534
57.52	1546
57.53	1567
57.54	1565
57.55	1562
57.56	1551
57.57	1551
57.58	1564
57.59	1567
57.6	1553
57.61	1547
57.62	1536
57.63	1557
57.64	1568
57.65	1567
57.66	1572
57.67	1580
57.68	1561
57.69	1548
57.7	1588
57.71	1614
57.72	1613
57.73	1618
57.74	1632
57.75	1622
57.76	1638
57.77	1668
57.78	1684
57.79	1691
57.8	1698
57.81	1651
57.82	1656
57.83	1696
57.84	1748
57.85	1706
57.86	1718
57.87	1757
57.88	1784
57.89	1804
57.9	1841
57.91	1855
57.92	1895
57.93	1914
57.94	1948
57.95	1989
57.96	2007
57.97	2031
57.98	2075
57.99	2130
58.0	2146
58.01	2243
58.02	2360
58.03	2459
58.04	2581
58.05	2714
58.06	2870
58.07	3044
58.08	3202
58.09	3415
58.1	3626
58.11	3716
58.12	3867
58.13	4069
58.14	4245
58.15	4349
58.16	4377
58.17	4326
58.18	4252
58.19	4181
58.2	4055
58.21	3912
58.22	3907
58.23	3851
58.24	3728
58.25	3699
58.26	3622
58.27	3584
58.28	3601
58.29	3550
58.3	3492
58.31	3476
58.32	3468
58.33	3364
58.34	3254
58.35	3127
58.36	2969
58.37	2837
58.38	2743
58.39	2671
58.4	2576
58.41	2456
58.42	2398
58.43	2322
58.44	2234
58.45	2180
58.46	2094
58.47	2034
58.48	2043
58.49	2007
58.5	1950
58.51	1898
58.52	1897
58.53	1835
58.54	1831
58.55	1862
58.56	1851
58.57	1830
58.58	1800
58.59	1752
58.6	1672
58.61	1684
58.62	1686
58.63	1680
58.64	1694
58.65	1690
58.66	1657
58.67	1666
58.68	1638
58.69	1644
58.7	1642
58.71	1623
58.72	1603
58.73	1609
58.74	1585
58.75	1594
58.76	1618
58.77	1631
58.78	1622
58.79	1603
58.8	1581
58.81	1583
58.82	1540
58.83	1554
58.84	1535
58.85	1535
58.86	1565
58.87	1565
58.88	1561
58.89	1536
58.9	1559
58.91	1561
58.92	1536
58.93	1554
58.94	1551
58.95	1551
58.96	1566
58.97	1586
58.98	1595
58.99	1552
59.0	1526
59.01	1535
59.02	1535
59.03	1571
59.04	1563
59.05	1572
59.06	1574
59.07	1564
59.08	1567
59.09	1558
59.1	1520
59.11	1533
59.12	1557
59.13	1528
59.14	1531
59.15	1499
59.16	1495
59.17	1522
59.18	1545
59.19	1538
59.2	1523
59.21	1515
59.22	1517
59.23	1506
59.24	1520
59.25	1521
59.26	1544
59.27	1549
59.28	1564
59.29	1574
59.3	1553
59.31	1509
59.32	1542
59.33	1505
59.34	1489
59.35	1508
59.36	1499
59.37	1509
59.38	1507
59.39	1523
59.4	1534
59.41	1534
59.42	1555
59.43	1510
59.44	1462
59.45	1502
59.46	1508
59.47	1533
59.48	1526
59.49	1555
59.5	1520
59.51	1502
59.52	1541
59.53	1556
59.54	1537
59.55	1504
59.56	1521
59.57	1530
59.58	1501
59.59	1514
59.6	1538
59.61	1516
59.62	1515
59.63	1514
59.64	1475
59.65	1476
59.66	1492
59.67	1510
59.68	1517
59.69	1501
59.7	1465
59.71	1509
59.72	1502
59.73	1514
59.74	1523
59.75	1517
59.76	1488
59.77	1495
59.78	1502
59.79	1501
59.8	1535
59.81	1534
59.82	1523
59.83	1537
59.84	1564
59.85	1543
59.86	1493
59.87	1424
59.88	1458
59.89	1497
59.9	1522
59.91	1505
59.92	1494
59.93	1492
59.94	1549
59.95	1521
59.96	1522
59.97	1560
59.98	1582
59.99	1544
60.0	1533
60.01	1527
60.02	1514
60.03	1494
60.04	1495
60.05	1489
60.06	1456
60.07	1456
60.08	1462
60.09	1517
60.1	1496
60.11	1533
60.12	1545
60.13	1529
60.14	1530
60.15	1553
60.16	1517
60.17	1527
60.18	1539
60.19	1555
60.2	1527
60.21	1494
60.22	1513
60.23	1520
60.24	1518
60.25	1518
60.26	1514
60.27	1489
60.28	1496
60.29	1532
60.3	1565
60.31	1522
60.32	1503
60.33	1474
60.34	1481
60.35	1493
60.36	1499
60.37	1522
60.38	1539
60.39	1558
60.4	1520
60.41	1484
60.42	1484
60.43	1507
60.44	1549
60.45	1569
60.46	1551
60.47	1529
60.48	1559
60.49	1518
60.5	1516
60.51	1538
60.52	1550
60.53	1522
60.54	1491
60.55	1501
60.56	1526
60.57	1518
60.58	1502
60.59	1513
60.6	1480
60.61	1491
60.62	1502
60.63	1468
60.64	1483
60.65	1513
60.66	1533
60.67	1529
60.68	1502
60.69	1508
60.7	1521
60.71	1526
60.72	1523
60.73	1541
60.74	1531
60.75	1543
60.76	1554
60.77	1535
60.78	1566
60.79	1545
60.8	1492
60.81	1520
60.82	1516
60.83	1509
60.84	1485
60.85	1464
60.86	1531
60.87	1576
60.88	1530
60.89	1528
60.9	1563
60.91	1535
60.92	1487
60.93	1522
60.94	1517
60.95	1530
60.96	1556
60.97	1574
60.98	1548
60.99	1530
61.0	1531
61.01	1503
61.02	1523
61.03	1517
61.04	1525
61.05	1537
61.06	1566
61.07	1601
61.08	1585
61.09	1552
61.1	1535
61.11	1523
61.12	1548
61.13	1538
61.14	1541
61.15	1530
61.16	1514
61.17	1519
61.18	1575
61.19	1561
61.2	1585
61.21	1533
61.22	1535
61.23	1522
61.24	1503
61.25	1518
61.26	1526
61.27	1503
61.28	1498
61.29	1545
61.3	1535
61.31	1528
61.32	1511
61.33	1532
61.34	1549
61.35	1561
61.36	1515
61.37	1501
61.38	1549
61.39	1582
61.4	1540
61.41	1542
61.42	1525
61.43	1533
61.44	1527
61.45	1530
61.46	1528
61.47	1565
61.48	1542
61.49	1541
61.5	1561
61.51	1539
61.52	1539
61.53	1516
61.54	1491
61.55	1524
61.56	1515
61.57	1500
61.58	1553
61.59	1558
61.6	1540
61.61	1561
61.62	1538
61.63	1526
61.64	1510
61.65	1545
61.66	1555
61.67	1548
61.68	1490
61.69	1481
61.7	1470
61.71	1477
61.72	1503
61.73	1541
61.74	1562
61.75	1583
61.76	1572
61.77	1552
61.78	1512
61.79	1543
61.8	1568
61.81	1562
61.82	1542
61.83	1577
61.84	1577
61.85	1528
61.86	1538
61.87	1540
61.88	1547
61.89	1556
61.9	1547
61.91	1521
61.92	1524
61.93	1547
61.94	1587
61.95	1550
61.96	1505
61.97	1523
61.98	1527
61.99	1533
62.0	1541
62.01	1554
62.02	1548
62.03	1518
62.04	1514
62.05	1516
62.06	1538
62.07	1560
62.08	1519
62.09	1527
62.1	1509
62.11	1514
62.12	1514
62.13	1542
62.14	1531
62.15	1552
62.16	1567
62.17	1556
62.18	1543
62.19	1557
62.2	1580
62.21	1521
62.22	1531
62.23	1517
62.24	1507
62.25	1494
62.26	1542
62.27	1506
62.28	1502
62.29	1515
62.3	1550
62.31	1549
62.32	1548
62.33	1556
62.34	1592
62.35	1617
62.36	1644
62.37	1574
62.38	1568
62.39	1573
62.4	1516
62.41	1517
62.42	1529
62.43	1503
62.44	1540
62.45	1532
62.46	1545
62.47	1593
62.48	1535
62.49	1508
62.5	1521
62.51	1551
62.52	1522
62.53	1542
62.54	1573
62.55	1574
62.56	1557
62.57	1530
62.58	1564
62.59	1572
62.6	1602
62.61	1555
62.62	1513
62.63	1530
62.64	1567
62.65	1540
62.66	1533
62.67	1565
62.68	1541
62.69	1516
62.7	1572
62.71	1604
62.72	1588
62.73	1573
62.74	1579
62.75	1521
62.76	1533
62.77	1586
62.78	1550
62.79	1556
62.8	1563
62.81	1580
62.82	1550
62.83	1529
62.84	1516
62.85	1552
62.86	1597
62.87	1573
62.88	1551
62.89	1556
62.9	1554
62.91	1560
62.92	1565
62.93	1558
62.94	1592
62.95	1574
62.96	1561
62.97	1584
62.98	1625
62.99	1608
63.0	1588
63.01	1572
63.02	1566
63.03	1572
63.04	1567
63.05	1594
63.06	1533
63.07	1532
63.08	1578
63.09	1565
63.1	1559
63.11	1558
63.12	1564
63.13	1632
63.14	1619
63.15	1611
63.16	1540
63.17	1573
63.18	1605
63.19	1601
63.2	1596
63.21	1619
63.22	1625
63.23	1608
63.24	1596
63.25	1583
63.26	1601
63.27	1554
63.28	1608
63.29	1592
63.3	1606
63.31	1626
63.32	1630
63.33	1606
63.34	1679
63.35	1654
63.36	1647
63.37	1643
63.38	1626
63.39	1642
63.4	1653
63.41	1673
63.42	1700
63.43	1653
63.44	1686
63.45	1691
63.46	1673
63.47	1682
63.48	1719
63.49	1743
63.5	1702
63.51	1734
63.52	1792
63.53	1817
63.54	1823
63.55	1811
63.56	1836
63.57	1860
63.58	1889
63.59	1874
63.6	1888
63.61	1912
63.62	1920
63.63	1932
63.64	1984
63.65	2018
63.66	2018
63.67	2048
63.68	2105
63.69	2212
63.7	2299
63.71	2341
63.72	2358
63.73	2528
63.74	2689
63.75	2888
63.76	3041
63.77	3239
63.78	3456
63.79	3824
63.8	4115
63.81	4454
63.82	4796
63.83	5134
63.84	5613
63.85	6093
63.86	6341
63.87	6456
63.88	6619
63.89	6613
63.9	6450
63.91	6310
63.92	6010
63.93	5852
63.94	5532
63.95	5253
63.96	5038
63.97	4984
63.98	4894
63.99	4767
64.0	4786
64.01	4900
64.02	4855
64.03	4951
64.04	4948
64.05	4871
64.06	4823
64.07	4721
64.08	4589
64.09	4330
64.1	4133
64.11	3888
64.12	3628
64.13	3458
64.14	3363
64.15	3154
64.16	3062
64.17	2829
64.18	2770
64.19	2679
64.2	2534
64.21	2446
64.22	2411
64.23	2374
64.24	2320
64.25	2184
64.26	2142
64.27	2128
64.28	2083
64.29	2058
64.3	1968
64.31	1955
64.32	1928
64.33	1986
64.34	1911
64.35	1840
64.36	1852
64.37	1806
64.38	1782
64.39	1812
64.4	1773
64.41	1742
64.42	1758
64.43	1774
64.44	1724
64.45	1696
64.46	1702
64.47	1712
64.48	1700
64.49	1694
64.5	1684
64.51	1707
64.52	1675
64.53	1618
64.54	1579
64.55	1527
64.56	1586
64.57	1635
64.58	1695
64.59	1670
64.6	1710
64.61	1656
64.62	1655
64.63	1600
64.64	1649
64.65	1675
64.66	1609
64.67	1624
64.68	1668
64.69	1662
64.7	1636
64.71	1623
64.72	1647
64.73	1616
64.74	1618
64.75	1612
64.76	1633
64.77	1610
64.78	1623
64.79	1605
64.8	1610
64.81	1557
64.82	1579
64.83	1616
64.84	1623
64.85	1625
64.86	1578
64.87	1575
64.88	1557
64.89	1591
64.9	1595
64.91	1590
64.92	1591
64.93	1593
64.94	1562
64.95	1567
64.96	1582
64.97	1542
64.98	1558
64.99	1578
65.0	1625
65.01	1595
65.02	1508
65.03	1539
65.04	1522
65.05	1572
65.06	1613
65.07	1589
65.08	1551
65.09	1592
65.1	1610
65.11	1624
65.12	1550
65.13	1545
65.14	1541
65.15	1562
65.16	1568
65.17	1576
65.18	1593
65.19	1567
65.2	1581
65.21	1568
65.22	1588
65.23	1542
65.24	1578
65.25	1570
65.26	1535
65.27	1549
65.28	1546
65.29	1550
65.3	1537
65.31	1575
65.32	1602
65.33	1603
65.34	1614
65.35	1543
65.36	1537
65.37	1569
65.38	1552
65.39	1555
65.4	1529
65.41	1553
65.42	1555
65.43	1483
65.44	1567
65.45	1598
65.46	1564
65.47	1565
65.48	1563
65.49	1601
65.5	1564
65.51	1574
65.52	1541
65.53	1588
65.54	1596
65.55	1590
65.56	1565
65.57	1576
65.58	1576
65.59	1534
65.6	1532
65.61	1528
65.62	1516
65.63	1538
65.64	1563
65.65	1576
65.66	1539
65.67	1540
65.68	1572
65.69	1587
65.7	1559
65.71	1567
65.72	1525
65.73	1570
65.74	1561
65.75	1555
65.76	1555
65.77	1569
65.78	1552
65.79	1567
65.8	1557
65.81	1526
65.82	1525
65.83	1496
65.84	1479
65.85	1527
65.86	1550
65.87	1582
65.88	1558
65.89	1555
65.9	1518
65.91	1521
65.92	1563
65.93	1595
65.94	1547
65.95	1486
65.96	1527
65.97	1550
65.98	1573
65.99	1562
66.0	1560
66.01	1578
66.02	1581
66.03	1536
66.04	1547
66.05	1533
66.06	1568
66.07	1576
66.08	1536
66.09	1559
66.1	1566
66.11	1599
66.12	1565
66.13	1539
66.14	1585
66.15	1586
66.16	1591
66.17	1542
66.18	1479
66.19	1504
66.2	1558
66.21	1546
66.22	1557
66.23	1519
66.24	1519
66.25	1517
66.26	1531
66.27	1570
66.28	1547
66.29	1540
66.3	1597
66.31	1633
66.32	1540
66.33	1483
66.34	1518
66.35	1571
66.36	1596
66.37	1547
66.38	1512
66.39	1546
66.4	1558
66.41	1577
66.42	1584
66.43	1542
66.44	1542
66.45	1542
66.46	1492
66.47	1552
66.48	1565
66.49	1560
66.5	1498
66.51	1555
66.52	1574
66.53	1568
66.54	1525
66.55	1572
66.56	1588
66.57	1569
66.58	1555
66.59	1539
66.6	1549
66.61	1579
66.62	1588
66.63	1592
66.64	1609
66.65	1586
66.66	1575
66.67	1499
66.68	1516
66.69	1573
66.7	1644
66.71	1559
66.72	1567
66.73	1580
66.74	1580
66.75	1577
66.76	1612
66.77	1623
66.78	1652
66.79	1666
66.8	1659
66.81	1612
66.82	1654
66.83	1673
66.84	1712
66.85	1720
66.86	1710
66.87	1668
66.88	1645
66.89	1647
66.9	1691
66.91	1787
66.92	1777
66.93	1711
66.94	1657
66.95	1731
66.96	1793
66.97	1843
66.98	1858
66.99	1852
67.0	1902
67.01	1947
67.02	2015
67.03	2037
67.04	2041
67.05	2155
67.06	2290
67.07	2414
67.08	2437
67.09	2513
67.1	2676
67.11	2858
67.12	2958
67.13	3096
67.14	3179
67.15	3308
67.16	3503
67.17	3550
67.18	3573
67.19	3519
67.2	3462
67.21	3436
67.22	3315
67.23	3207
67.24	3107
67.25	3054
67.26	2943
67.27	2926
67.28	2944
67.29	2881
67.3	2797
67.31	2780
67.32	2836
67.33	2911
67.34	2827
67.35	2905
67.36	2849
67.37	2856
67.38	2781
67.39	2697
67.4	2603
67.41	2594
67.42	2549
67.43	2497
67.44	2405
67.45	2375
67.46	2297
67.47	2160
67.48	2102
67.49	2082
67.5	2044
67.51	1982
67.52	1906
67.53	1832
67.54	1829
67.55	1813
67.56	1809
67.57	1726
67.58	1771
67.59	1786
67.6	1671
67.61	1712
67.62	1731
67.63	1755
67.64	1701
67.65	1697
67.66	1677
67.67	1682
67.68	1664
67.69	1708
67.7	1698
67.71	1627
67.72	1627
67.73	1606
67.74	1602
67.75	1615
67.76	1615
67.77	1642
67.78	1640
67.79	1625
67.8	1560
67.81	1594
67.82	1628
67.83	1602
67.84	1615
67.85	1582
67.86	1608
67.87	1572
67.88	1564
67.89	1599
67.9	1626
67.91	1602
67.92	1521
67.93	1552
67.94	1582
67.95	1554
67.96	1587
67.97	1556
67.98	1567
67.99	1561
68.0	1568
68.01	1584
68.02	1564
68.03	1556
68.04	1525
68.05	1566
68.06	1582
68.07	1572
68.08	1561
68.09	1583
68.1	1557
68.11	1543
68.12	1541
68.13	1543
68.14	1560
68.15	1580
68.16	1588
68.17	1581
68.18	1539
68.19	1532
68.2	1546
68.21	1556
68.22	1600
68.23	1553
68.24	1585
68.25	1570
68.26	1559
68.27	1537
68.28	1507
68.29	1573
68.3	1621
68.31	1567
68.32	1568
68.33	1541
68.34	1585
68.35	1564
68.36	1581
68.37	1588
68.38	1630
68.39	1561
68.4	1523
68.41	1549
68.42	1569
68.43	1547
68.44	1515
68.45	1552
68.46	1603
68.47	1576
68.48	1556
68.49	1547
68.5	1546
68.51	1553
68.52	1576
68.53	1550
68.54	1514
68.55	1519
68.56	1506
68.57	1492
68.58	1510
68.59	1493
68.6	1474
68.61	1547
68.62	1547
68.63	1537
68.64	1580
68.65	1553
68.66	1506
68.67	1486
68.68	1524
68.69	1526
68.7	1500
68.71	1537
68.72	1564
68.73	1566
68.74	1511
68.75	1503
68.76	1519
68.77	1507
68.78	1557
68.79	1583
68.8	1576
68.81	1484
68.82	1462
68.83	1528
68.84	1563
68.85	1560
68.86	1548
68.87	1568
68.88	1591
68.89	1598
68.9	1527
68.91	1504
68.92	1512
68.93	1508
68.94	1506
68.95	1538
68.96	1550
68.97	1566
68.98	1543
68.99	1528
69.0	1511
69.01	1518
69.02	1515
69.03	1539
69.04	1561
69.05	1571
69.06	1578
69.07	1576
69.08	1546
69.09	1501
69.1	1538
69.11	1537
69.12	1474
69.13	1506
69.14	1483
69.15	1485
69.16	1510
69.17	1526
69.18	1542
69.19	1557
69.2	1576
69.21	1578
69.22	1566
69.23	1507
69.24	1543
69.25	1522
69.26	1533
69.27	1447
69.28	1472
69.29	1509
69.3	1526
69.31	1512
69.32	1546
69.33	1566
69.34	1580
69.35	1527
69.36	1527
69.37	1538
69.38	1535
69.39	1557
69.4	1569
69.41	1525
69.42	1495
69.43	1526
69.44	1534
69.45	1545
69.46	1532
69.47	1488
69.48	1426
69.49	1490
69.5	1561
69.51	1506
69.52	1502
69.53	1535
69.54	1546
69.55	1532
69.56	1559
69.57	1568
69.58	1549
69.59	1569
69.6	1552
69.61	1530
69.62	1549
69.63	1540
69.64	1523
69.65	1518
69.66	1568
69.67	1556
69.68	1548
69.69	1556
69.7	1529
69.71	1498
69.72	1520
69.73	1530
69.74	1531
69.75	1493
69.76	1555
69.77	1567
69.78	1539
69.79	1543
69.8	1522
69.81	1487
69.82	1494
69.83	1474
69.84	1494
69.85	1469
69.86	1529
69.87	1530
69.88	1509
69.89	1523
69.9	1557
69.91	1575
69.92	1529
69.93	1486
69.94	1499
69.95	1498
69.96	1504
69.97	1526
69.98	1524
69.99	1523
70.0	1539
70.01	1506
70.02	1478
70.03	1503
70.04	1521
70.05	1511
70.06	1481
70.07	1511
70.08	1524
70.09	1493
70.1	1460
70.11	1468
70.12	1561
70.13	1486
70.14	1513
70.15	1499
70.16	1520
70.17	1553
70.18	1585
70.19	1573
70.2	1525
70.21	1525
70.22	1525
70.23	1497
70.24	1498
70.25	1504
70.26	1531
70.27	1546
70.28	1515
70.29	1554
70.3	1585
70.31	1550
70.32	1541
70.33	1510
70.34	1526
70.35	1521
70.36	1539
70.37	1549
70.38	1519
70.39	1554
70.4	1567
70.41	1568
70.42	1543
70.43	1511
70.44	1512
70.45	1501
70.46	1500
70.47	1488
70.48	1506
70.49	1508
70.5	1531
70.51	1553
70.52	1584
70.53	1567
70.54	1555
70.55	1563
70.56	1558
70.57	1523
70.58	1501
70.59	1518
70.6	1561
70.61	1558
70.62	1539
70.63	1504
70.64	1506
70.65	1501
70.66	1469
70.67	1483
70.68	1507
70.69	1498
70.7	1455
70.71	1532
70.72	1497
70.73	1520
70.74	1522
70.75	1534
70.76	1501
70.77	1508
70.78	1497
70.79	1443
70.8	1482
70.81	1510
70.82	1471
70.83	1463
70.84	1513
70.85	1546
70.86	1526
70.87	1567
70.88	1532
70.89	1545
70.9	1522
70.91	1533
70.92	1566
70.93	1549
70.94	1543
70.95	1561
70.96	1503
70.97	1515
70.98	1547
70.99	1506
71.0	1497
71.01	1527
71.02	1583
71.03	1553
71.04	1471
71.05	1483
71.06	1527
71.07	1560
71.08	1501
71.09	1475
71.1	1479
71.11	1501
71.12	1502
71.13	1564
71.14	1591
71.15	1551
71.16	1533
71.17	1499
71.18	1544
71.19	1523
71.2	1467
71.21	1543
71.22	1598
71.23	1569
71.24	1563
71.25	1523
71.26	1522
71.27	1536
71.28	1521
71.29	1520
71.3	1554
71.31	1536
71.32	1506
71.33	1551
71.34	1555
71.35	1519
71.36	1556
71.37	1490
71.38	1475
71.39	1497
71.4	1538
71.41	1472
71.42	1486
71.43	1511
71.44	1495
71.45	1517
71.46	1549
71.47	1499
71.48	1478
71.49	1464
71.5	1499
71.51	1490
71.52	1528
71.53	1533
71.54	1542
71.55	1531
71.56	1521
71.57	1566
71.58	1535
71.59	1494
71.6	1498
71.61	1491
71.62	1513
71.63	1521
71.64	1518
71.65	1518
71.66	1539
71.67	1510
71.68	1461
71.69	1518
71.7	1548
71.71	1544
71.72	1525
71.73	1496
71.74	1510
71.75	1579
71.76	1568
71.77	1551
71.78	1556
71.79	1515
71.8	1474
71.81	1503
71.82	1445
71.83	1505
71.84	1554
71.85	1541
71.86	1508
71.87	1506
71.88	1536
71.89	1507
71.9	1516
71.91	1537
71.92	1510
71.93	1495
71.94	1509
71.95	1473
71.96	1499
71.97	1496
71.98	1543
71.99	1576
72.0	1556
72.01	1514
72.02	1525
72.03	1507
72.04	1507
72.05	1502
72.06	1606
72.07	1593
72.08	1511
72.09	1516
72.1	1587
72.11	1514
72.12	1509
72.13	1527
72.14	1499
72.15	1507
72.16	1528
72.17	1535
72.18	1492
72.19	1496
72.2	1572
72.21	1559
72.22	1519
72.23	1585
72.24	1572
72.25	1554
72.26	1559
72.27	1551
72.28	1572
72.29	1562
72.3	1495
72.31	1510
72.32	1545
72.33	1521
72.34	1509
72.35	1499
72.36	1540
72.37	1515
72.38	1535
72.39	1570
72.4	1543
72.41	1527
72.42	1498
72.43	1536
72.44	1529
72.45	1485
72.46	1521
72.47	1507
72.48	1518
72.49	1530
72.5	1491
72.51	1476
72.52	1488
72.53	1541
72.54	1569
72.55	1544
72.56	1566
72.57	1574
72.58	1563
72.59	1561
72.6	1545
72.61	1579
72.62	1526
72.63	1572
72.64	1545
72.65	1553
72.66	1507
72.67	1526
72.68	1543
72.69	1527
72.7	1518
72.71	1529
72.72	1540
72.73	1539
72.74	1545
72.75	1535
72.76	1528
72.77	1500
72.78	1506
72.79	1484
72.8	1440
72.81	1547
72.82	1551
72.83	1519
72.84	1522
72.85	1518
72.86	1522
72.87	1507
72.88	1518
72.89	1542
72.9	1529
72.91	1509
72.92	1515
72.93	1506
72.94	1512
72.95	1520
72.96	1497
72.97	1553
72.98	1557
72.99	1499
73.0	1516
73.01	1509
73.02	1441
73.03	1466
73.04	1494
73.05	1523
73.06	1520
73.07	1536
73.08	1527
73.09	1538
73.1	1521
73.11	1543
73.12	1527
73.13	1553
73.14	1537
73.15	1496
73.16	1511
73.17	1515
73.18	1515
73.19	1521
73.2	1546
73.21	1566
73.22	1553
73.23	1543
73.24	1568
73.25	1581
73.26	1541
73.27	1521
73.28	1551
73.29	1569
73.3	1561
73.31	1507
73.32	1473
73.33	1473
73.34	1492
73.35	1471
73.36	1544
73.37	1535
73.38	1539
73.39	1517
73.4	1517
73.41	1465
73.42	1485
73.43	1485
73.44	1500
73.45	1515
73.46	1507
73.47	1497
73.48	1488
73.49	1473
73.5	1528
73.51	1544
73.52	1535
73.53	1519
73.54	1530
73.55	1542
73.56	1556
73.57	1506
73.58	1483
73.59	1521
73.6	1518
73.61	1509
73.62	1528
73.63	1513
73.64	1553
73.65	1531
73.66	1518
73.67	1507
73.68	1511
73.69	1509
73.7	1477
73.71	1520
73.72	1544
73.73	1505
73.74	1541
73.75	1550
73.76	1529
73.77	1543
73.78	1536
73.79	1514
73.8	1540
73.81	1529
73.82	1511
73.83	1516
73.84	1551
73.85	1548
73.86	1555
73.87	1547
73.88	1526
73.89	1560
73.9	1578
73.91	1613
73.92	1560
73.93	1533
73.94	1501
73.95	1522
73.96	1514
73.97	1471
73.98	1443
73.99	1489
74.0	1521
74.01	1524
74.02	1545
74.03	1521
74.04	1562
74.05	1562
74.06	1479
74.07	1526
74.08	1564
74.09	1512
74.1	1499
74.11	1486
74.12	1538
74.13	1527
74.14	1474
74.15	1508
74.16	1507
74.17	1503
74.18	1534
74.19	1523
74.2	1540
74.21	1566
74.22	1567
74.23	1558
74.24	1547
74.25	1586
74.26	1606
74.27	1584
74.28	1535
74.29	1542
74.3	1546
74.31	1546
74.32	1522
74.33	1554
74.34	1495
74.35	1494
74.36	1489
74.37	1518
74.38	1556
74.39	1540
74.4	1475
74.41	1484
74.42	1541
74.43	1551
74.44	1574
74.45	1566
74.46	1554
74.47	1538
74.48	1529
74.49	1532
74.5	1550
74.51	1546
74.52	1522
74.53	1532
74.54	1517
74.55	1533
74.56	1539
74.57	1499
74.58	1509
74.59	1493
74.6	1485
74.61	1534
74.62	1575
74.63	1572
74.64	1551
74.65	1549
74.66	1555
74.67	1568
74.68	1517
74.69	1507
74.7	1483
74.71	1516
74.72	1525
74.73	1542
74.74	1557
74.75	1513
74.76	1523
74.77	1530
74.78	1572
74.79	1548
74.8	1552
74.81	1571
74.82	1533
74.83	1498
74.84	1515
74.85	1534
74.86	1543
74.87	1538
74.88	1517
74.89	1532
74.9	1536
74.91	1548
74.92	1506
74.93	1542
74.94	1567
74.95	1553
74.96	1528
74.97	1574
74.98	1572
74.99	1497
75.0	1539
75.01	1535
75.02	1553
75.03	1530
75.04	1563
75.05	1558
75.06	1522
75.07	1537
75.08	1587
75.09	1585
75.1	1533
75.11	1546
75.12	1563
75.13	1602
75.14	1603
75.15	1586
75.16	1530
75.17	1566
75.18	1514
75.19	1546
75.2	1535
75.21	1519
75.22	1519
75.23	1525
75.24	1531
75.25	1564
75.26	1602
75.27	1596
75.28	1637
75.29	1610
75.3	1601
75.31	1626
75.32	1609
75.33	1601
75.34	1584
75.35	1559
75.36	1544
75.37	1551
75.38	1563
75.39	1601
75.4	1640
75.41	1697
75.42	1629
75.43	1606
75.44	1575
75.45	1632
75.46	1641
75.47	1657
75.48	1690
75.49	1705
75.5	1725
75.51	1751
75.52	1770
75.53	1803
75.54	1846
75.55	1926
75.56	1997
75.57	2047
75.58	2051
75.59	2082
75.6	2139
75.61	2140
75.62	2190
75.63	2175
75.64	2178
75.65	2166
75.66	2160
75.67	2148
75.68	2102
75.69	2096
75.7	2038
75.71	1991
75.72	1961
75.73	1914
75.74	1927
75.75	1929
75.76	1898
75.77	1896
75.78	1933
75.79	1953
75.8	1931
75.81	1906
75.82	1953
75.83	1939
75.84	1942
75.85	1935
75.86	1962
75.87	1917
75.88	1876
75.89	1828
75.9	1816
75.91	1823
75.92	1829
75.93	1813
75.94	1757
75.95	1737
75.96	1747
75.97	1660
75.98	1669
75.99	1648
76.0	1619
76.01	1667
76.02	1648
76.03	1626
76.04	1639
76.05	1667
76.06	1633
76.07	1588
76.08	1586
76.09	1615
76.1	1580
76.11	1597
76.12	1649
76.13	1592
76.14	1586
76.15	1624
76.16	1600
76.17	1587
76.18	1550
76.19	1562
76.2	1655
76.21	1628
76.22	1599
76.23	1612
76.24	1563
76.25	1634
76.26	1606
76.27	1599
76.28	1596
76.29	1585
76.3	1604
76.31	1672
76.32	1700
76.33	1671
76.34	1637
76.35	1646
76.36	1611
76.37	1599
76.38	1565
76.39	1563
76.4	1636
76.41	1651
76.42	1676
76.43	1688
76.44	1668
76.45	1688
76.46	1739
76.47	1795
76.48	1770
76.49	1738
76.5	1758
76.51	1757
76.52	1780
76.53	1887
76.54	1934
76.55	1940
76.56	1984
76.57	2017
76.58	2072
76.59	2134
76.6	2133
76.61	2154
76.62	2271
76.63	2319
76.64	2292
76.65	2296
76.66	2353
76.67	2323
76.68	2293
76.69	2241
76.7	2237
76.71	2245
76.72	2196
76.73	2202
76.74	2129
76.75	2156
76.76	2128
76.77	2081
76.78	2119
76.79	2081
76.8	2018
76.81	2077
76.82	2083
76.83	2095
76.84	2089
76.85	2067
76.86	2068
76.87	2028
76.88	2100
76.89	2022
76.9	2005
76.91	2042
76.92	2047
76.93	2021
76.94	1992
76.95	1944
76.96	1857
76.97	1860
76.98	1810
76.99	1771
77.0	1802
77.01	1765
77.02	1757
77.03	1738
77.04	1745
77.05	1733
77.06	1726
77.07	1651
77.08	1695
77.09	1706
77.1	1679
77.11	1694
77.12	1629
77.13	1627
77.14	1599
77.15	1596
77.16	1594
77.17	1630
77.18	1632
77.19	1615
77.2	1628
77.21	1591
77.22	1553
77.23	1570
77.24	1572
77.25	1608
77.26	1612
77.27	1663
77.28	1625
77.29	1570
77.3	1560
77.31	1552
77.32	1555
77.33	1604
77.34	1614
77.35	1576
77.36	1565
77.37	1549
77.38	1524
77.39	1507
77.4	1540
77.41	1560
77.42	1589
77.43	1545
77.44	1492
77.45	1532
77.46	1558
77.47	1547
77.48	1512
77.49	1553
77.5	1585
77.51	1562
77.52	1553
77.53	1481
77.54	1483
77.55	1558
77.56	1541
77.57	1489
77.58	1550
77.59	1491
77.6	1497
77.61	1550
77.62	1578
77.63	1549
77.64	1526
77.65	1541
77.66	1532
77.67	1501
77.68	1550
77.69	1538
77.7	1478
77.71	1503
77.72	1513
77.73	1561
77.74	1508
77.75	1536
77.76	1561
77.77	1518
77.78	1492
77.79	1534
77.8	1564
77.81	1542
77.82	1538
77.83	1510
77.84	1562
77.85	1584
77.86	1558
77.87	1545
77.88	1518
77.89	1540
77.9	1490
77.91	1497
77.92	1521
77.93	1485
77.94	1511
77.95	1500
77.96	1535
77.97	1533
77.98	1522
77.99	1542
78.0	1560
78.01	1524
78.02	1510
78.03	1544
78.04	1503
78.05	1494
78.06	1477
78.07	1482
78.08	1555
78.09	1558
78.1	1545
78.11	1538
78.12	1534
78.13	1480
78.14	1470
78.15	1489
78.16	1502
78.17	1494
78.18	1522
78.19	1535
78.2	1518
78.21	1489
78.22	1468
78.23	1483
78.24	1518
78.25	1519
78.26	1552
78.27	1545
78.28	1517
78.29	1519
78.3	1557
78.31	1540
78.32	1503
78.33	1490
78.34	1543
78.35	1522
78.36	1566
78.37	1644
78.38	1586
78.39	1566
78.4	1576
78.41	1496
78.42	1513
78.43	1537
78.44	1511
78.45	1521
78.46	1501
78.47	1479
78.48	1522
78.49	1516
78.5	1511
78.51	1552
78.52	1559
78.53	1562
78.54	1549
78.55	1500
78.56	1514
78.57	1537
78.58	1528
78.59	1554
78.6	1555
78.61	1515
78.62	1513
78.63	1527
78.64	1525
78.65	1550
78.66	1526
78.67	1532
78.68	1498
78.69	1512
78.7	1530
78.71	1548
78.72	1568
78.73	1598
78.74	1560
78.75	1478
78.76	1508
78.77	1504
78.78	1571
78.79	1594
78.8	1536
78.81	1503
78.82	1505
78.83	1503
78.84	1476
78.85	1493
78.86	1506
78.87	1518
78.88	1536
78.89	1523
78.9	1514
78.91	1540
78.92	1525
78.93	1505
78.94	1501
78.95	1510
78.96	1512
78.97	1539
78.98	1520
78.99	1530
79.0	1494
79.01	1508
79.02	1517
79.03	1518
79.04	1548
79.05	1510
79.06	1554
79.07	1524
79.08	1512
79.09	1506
79.1	1507
79.11	1522
79.12	1530
79.13	1545
79.14	1534
79.15	1509
79.16	1486
79.17	1499
79.18	1529
79.19	1570
79.2	1502
79.21	1479
79.22	1526
79.23	1561
79.24	1557
79.25	1550
79.26	1525
79.27	1531
79.28	1558
79.29	1508
79.3	1518
79.31	1562
79.32	1539
79.33	1526
79.34	1528
79.35	1485
79.36	1507
79.37	1556
79.38	1533
79.39	1496
79.4	1497
79.41	1505
79.42	1528
79.43	1510
79.44	1552
79.45	1562
79.46	1549
79.47	1559
79.48	1536
79.49	1513
79.5	1503
79.51	1498
79.52	1529
79.53	1542
79.54	1497
79.55	1479
79.56	1510
79.57	1537
79.58	1503
79.59	1528
79.6	1528
79.61	1490
79.62	1481
79.63	1528
79.64	1552
79.65	1519
79.66	1473
79.67	1529
79.68	1497
79.69	1521
79.7	1486
79.71	1503
79.72	1516
79.73	1543
79.74	1515
79.75	1521
79.76	1501
79.77	1507
79.78	1528
79.79	1544
79.8	1542
79.81	1569
79.82	1526
79.83	1528
79.84	1475
79.85	1524
79.86	1542
79.87	1528
79.88	1532
79.89	1524
79.9	1502
79.91	1517
79.92	1526
79.93	1532
79.94	1486
79.95	1466
79.96	1502
79.97	1501
79.98	1503
79.99	1532
80.0	1590
80.01	1568
80.02	1557
80.03	1549
80.04	1545
80.05	1524
80.06	1513
80.07	1483
80.08	1513
80.09	1479
80.1	1528
80.11	1511
80.12	1532
80.13	1520
80.14	1529
80.15	1550
80.16	1557
80.17	1536
80.18	1525
80.19	1515
80.2	1537
80.21	1512
80.22	1603
80.23	1590
80.24	1545
80.25	1495
80.26	1508
80.27	1586
80.28	1533
80.29	1578
80.3	1571
80.31	1562
80.32	1586
80.33	1611
80.34	1555
80.35	1590
80.36	1568
80.37	1548
80.38	1605
80.39	1578
80.4	1534
80.41	1537
80.42	1569
80.43	1566
80.44	1563
80.45	1632
80.46	1635
80.47	1618
80.48	1632
80.49	1644
80.5	1645
80.51	1612
80.52	1666
80.53	1655
80.54	1718
80.55	1704
80.56	1690
80.57	1754
80.58	1733
80.59	1751
80.6	1758
80.61	1761
80.62	1821
80.63	1906
80.64	2008
80.65	2102
80.66	2200
80.67	2209
80.68	2343
80.69	2514
80.7	2645
80.71	2728
80.72	2745
80.73	2749
80.74	2779
80.75	2737
80.76	2738
80.77	2703
80.78	2611
80.79	2471
80.8	2465
80.81	2373
80.82	2303
80.83	2254
80.84	2190
80.85	2120
80.86	2062
80.87	2100
80.88	2154
80.89	2088
80.9	2068
80.91	2146
80.92	2149
80.93	2162
80.94	2202
80.95	2260
80.96	2278
80.97	2280
80.98	2262
80.99	2238
81.0	2246
81.01	2214
81.02	2189
81.03	2074
81.04	2008
81.05	1975
81.06	1950
81.07	1902
81.08	1855
81.09	1820
81.1	1824
81.11	1776
81.12	1784
81.13	1763
81.14	1745
81.15	1731
81.16	1674
81.17	1653
81.18	1628
81.19	1630
81.2	1651
81.21	1682
81.22	1653
81.23	1627
81.24	1614
81.25	1609
81.26	1618
81.27	1616
81.28	1619
81.29	1614
81.3	1588
81.31	1565
81.32	1532
81.33	1535
81.34	1598
81.35	1555
81.36	1559
81.37	1596
81.38	1605
81.39	1611
81.4	1593
81.41	1600
81.42	1576
81.43	1572
81.44	1602
81.45	1587
81.46	1591
81.47	1564
81.48	1572
81.49	1533
81.5	1517
81.51	1572
81.52	1589
81.53	1571
81.54	1491
81.55	1508
81.56	1542
81.57	1499
81.58	1507
81.59	1528
81.6	1550
81.61	1518
81.62	1515
81.63	1519
81.64	1545
81.65	1538
81.66	1544
81.67	1518
81.68	1508
81.69	1521
81.7	1534
81.71	1553
81.72	1561
81.73	1561
81.74	1547
81.75	1606
81.76	1553
81.77	1502
81.78	1542
81.79	1567
81.8	1566
81.81	1546
81.82	1567
81.83	1521
81.84	1540
81.85	1571
81.86	1546
81.87	1526
81.88	1527
81.89	1492
81.9	1477
81.91	1491
81.92	1511
81.93	1513
81.94	1547
81.95	1541
81.96	1475
81.97	1485
81.98	1499
81.99	1546
82.0	1521
82.01	1530
82.02	1571
82.03	1586
82.04	1542
82.05	1570
82.06	1543
82.07	1528
82.08	1561
82.09	1566
82.1	1564
82.11	1561
82.12	1546
82.13	1506
82.14	1519
82.15	1539
82.16	1545
82.17	1533
82.18	1580
82.19	1556
82.2	1520
82.21	1513
82.22	1552
82.23	1548
82.24	1502
82.25	1494
82.26	1487
82.27	1505
82.28	1503
82.29	1528
82.3	1546
82.31	1524
82.32	1515
82.33	1526
82.34	1538
82.35	1543
82.36	1547
82.37	1511
82.38	1508
82.39	1526
82.4	1612
82.41	1562
82.42	1523
82.43	1541
82.44	1522
82.45	1500
82.46	1560
82.47	1558
82.48	1499
82.49	1491
82.5	1506
82.51	1544
82.52	1562
82.53	1502
82.54	1508
82.55	1516
82.56	1516
82.57	1495
82.58	1506
82.59	1498
82.6	1513
82.61	1493
82.62	1472
82.63	1513
82.64	1549
82.65	1544
82.66	1513
82.67	1518
82.68	1559
82.69	1524
82.7	1506
82.71	1532
82.72	1543
82.73	1599
82.74	1583
82.75	1567
82.76	1510
82.77	1509
82.78	1544
82.79	1545
82.8	1551
82.81	1585
82.82	1562
82.83	1543
82.84	1519
82.85	1512
82.86	1539
82.87	1561
82.88	1571
82.89	1550
82.9	1511
82.91	1517
82.92	1544
82.93	1523
82.94	1532
82.95	1566
82.96	1573
82.97	1540
82.98	1519
82.99	1537
83.0	1543
83.01	1580
83.02	1551
83.03	1530
83.04	1474
83.05	1522
83.06	1583
83.07	1547
83.08	1527
83.09	1545
83.1	1578
83.11	1561
83.12	1548
83.13	1546
83.14	1539
83.15	1500
83.16	1509
83.17	1548
83.18	1547
83.19	1563
83.2	1598
83.21	1548
83.22	1558
83.23	1578
83.24	1611
83.25	1592
83.26	1556
83.27	1551
83.28	1565
83.29	1600
83.3	1541
83.31	1546
83.32	1564
83.33	1559
83.34	1573
83.35	1600
83.36	1596
83.37	1586
83.38	1563
83.39	1575
83.4	1563
83.41	1590
83.42	1599
83.43	1570
83.44	1589
83.45	1620
83.46	1626
83.47	1660
83.48	1622
83.49	1667
83.5	1678
83.51	1636
83.52	1609
83.53	1586
83.54	1612
83.55	1658
83.56	1715
83.57	1740
83.58	1724
83.59	1714
83.6	1765
83.61	1783
83.62	1791
83.63	1779
83.64	1861
83.65	1911
83.66	1956
83.67	1940
83.68	1997
83.69	2060
83.7	2099
83.71	2180
83.72	2263
83.73	2313
83.74	2279
83.75	2336
83.76	2352
83.77	2339
83.78	2347
83.79	2311
83.8	2286
83.81	2224
83.82	2165
83.83	2184
83.84	2179
83.85	2138
83.86	2098
83.87	2131
83.88	2091
83.89	2096
83.9	2061
83.91	2010
83.92	2025
83.93	2006
83.94	2006
83.95	2015
83.96	2042
83.97	2029
83.98	2014
83.99	1984
84.0	2001
84.01	2029
84.02	2013
84.03	2012
84.04	2060
84.05	1999
84.06	1982
84.07	1960
84.08	1944
84.09	1874
84.1	1853
84.11	1841
84.12	1848
84.13	1814
84.14	1792
84.15	1763
84.16	1783
84.17	1771
84.18	1745
84.19	1662
84.2	1676
84.21	1714
84.22	1690
84.23	1671
84.24	1652
84.25	1620
84.26	1631
84.27	1651
84.28	1642
84.29	1616
84.3	1585
84.31	1573
84.32	1577
84.33	1607
84.34	1587
84.35	1619
84.36	1621
84.37	1611
84.38	1623
84.39	1623
84.4	1588
84.41	1583
84.42	1614
84.43	1612
84.44	1543
84.45	1505
84.46	1560
84.47	1559
84.48	1599
84.49	1562
84.5	1551
84.51	1529
84.52	1531
84.53	1565
84.54	1579
84.55	1583
84.56	1565
84.57	1536
84.58	1555
84.59	1561
84.6	1546
84.61	1568
84.62	1580
84.63	1552
84.64	1529
84.65	1533
84.66	1559
84.67	1558
84.68	1520
84.69	1523
84.7	1554
84.71	1524
84.72	1519
84.73	1535
84.74	1556
84.75	1527
84.76	1515
84.77	1538
84.78	1562
84.79	1546
84.8	1518
84.81	1557
84.82	1531
84.83	1522
84.84	1553
84.85	1548
84.86	1534
84.87	1530
84.88	1537
84.89	1555
84.9	1556
84.91	1523
84.92	1470
84.93	1484
84.94	1530
84.95	1551
84.96	1539
84.97	1495
84.98	1494
84.99	1511
85.0	1519
85.01	1566
85.02	1541
85.03	1550
85.04	1548
85.05	1494
85.06	1468
85.07	1504
85.08	1540
85.09	1530
85.1	1543
85.11	1528
85.12	1521
85.13	1506
85.14	1544
85.15	1547
85.16	1518
85.17	1499
85.18	1554
85.19	1547
85.2	1516
85.21	1454
85.22	1442
85.23	1504
85.24	1553
85.25	1535
85.26	1542
85.27	1492
85.28	1504
85.29	1527
85.3	1554
85.31	1550
85.32	1515
85.33	1479
85.34	1510
85.35	1520
85.36	1515
85.37	1485
85.38	1492
85.39	1532
85.4	1561
85.41	1588
85.42	1550
85.43	1538
85.44	1542
85.45	1541
85.46	1530
85.47	1534
85.48	1515
85.49	1522
85.5	1516
85.51	1537
85.52	1533
85.53	1537
85.54	1530
85.55	1533
85.56	1532
85.57	1522
85.58	1496
85.59	1529
85.6	1519
85.61	1549
85.62	1563
85.63	1570
85.64	1536
85.65	1530
85.66	1542
85.67	1546
85.68	1554
85.69	1515
85.7	1494
85.71	1488
85.72	1495
85.73	1499
85.74	1526
85.75	1508
85.76	1482
85.77	1456
85.78	1474
85.79	1503
85.8	1503
85.81	1500
85.82	1501
85.83	1520
85.84	1545
85.85	1532
85.86	1500
85.87	1481
85.88	1515
85.89	1519
85.9	1532
85.91	1477
85.92	1475
85.93	1531
85.94	1556
85.95	1504
85.96	1504
85.97	1541
85.98	1541
85.99	1524
86.0	1525
86.01	1514
86.02	1532
86.03	1536
86.04	1554
86.05	1509
86.06	1476
86.07	1511
86.08	1552
86.09	1559
86.1	1544
86.11	1504
86.12	1466
86.13	1476
86.14	1535
86.15	1565
86.16	1553
86.17	1518
86.18	1490
86.19	1510
86.2	1523
86.21	1491
86.22	1501
86.23	1531
86.24	1543
86.25	1509
86.26	1520
86.27	1549
86.28	1543
86.29	1514
86.3	1508
86.31	1525
86.32	1529
86.33	1491
86.34	1469
86.35	1509
86.36	1540
86.37	1510
86.38	1506
86.39	1523
86.4	1515
86.41	1494
86.42	1509
86.43	1519
86.44	1540
86.45	1497
86.46	1495
86.47	1479
86.48	1480
86.49	1491
86.5	1512
86.51	1538
86.52	1537
86.53	1540
86.54	1504
86.55	1521
86.56	1550
86.57	1506
86.58	1467
86.59	1495
86.6	1509
86.61	1523
86.62	1494
86.63	1547
86.64	1508
86.65	1469
86.66	1493
86.67	1521
86.68	1537
86.69	1556
86.7	1548
86.71	1518
86.72	1509
86.73	1538
86.74	1559
86.75	1559
86.76	1541
86.77	1497
86.78	1487
86.79	1481
86.8	1515
86.81	1499
86.82	1494
86.83	1506
86.84	1509
86.85	1524
86.86	1567
86.87	1563
86.88	1553
86.89	1517
86.9	1473
86.91	1473
86.92	1509
86.93	1538
86.94	1524
86.95	1529
86.96	1532
86.97	1536
86.98	1509
86.99	1523
87.0	1522
87.01	1495
87.02	1488
87.03	1515
87.04	1520
87.05	1513
87.06	1522
87.07	1514
87.08	1503
87.09	1519
87.1	1502
87.11	1514
87.12	1502
87.13	1516
87.14	1515
87.15	1551
87.16	1584
87.17	1556
87.18	1518
87.19	1536
87.2	1544
87.21	1498
87.22	1490
87.23	1498
87.24	1511
87.25	1485
87.26	1500
87.27	1532
87.28	1544
87.29	1516
87.3	1514
87.31	1525
87.32	1561
87.33	1565
87.34	1550
87.35	1538
87.36	1535
87.37	1525
87.38	1525
87.39	1504
87.4	1517
87.41	1532
87.42	1548
87.43	1560
87.44	1540
87.45	1498
87.46	1529
87.47	1498
87.48	1484
87.49	1466
87.5	1486
87.51	1561
87.52	1559
87.53	1511
87.54	1481
87.55	1539
87.56	1522
87.57	1501
87.58	1524
87.59	1521
87.6	1496
87.61	1495
87.62	1509
87.63	1477
87.64	1475
87.65	1505
87.66	1528
87.67	1522
87.68	1499
87.69	1524
87.7	1540
87.71	1540
87.72	1550
87.73	1566
87.74	1537
87.75	1500
87.76	1501
87.77	1514
87.78	1520
87.79	1532
87.8	1505
87.81	1474
87.82	1490
87.83	1505
87.84	1480
87.85	1498
87.86	1523
87.87	1538
87.88	1528
87.89	1498
87.9	1534
87.91	1565
87.92	1523
87.93	1482
87.94	1470
87.95	1488
87.96	1504
87.97	1543
87.98	1556
87.99	1557
88.0	1549
88.01	1525
88.02	1517
88.03	1525
88.04	1502
88.05	1508
88.06	1524
88.07	1524
88.08	1512
88.09	1510
88.1	1531
88.11	1519
88.12	1519
88.13	1539
88.14	1552
88.15	1562
88.16	1549
88.17	1519
88.18	1527
88.19	1522
88.2	1501
88.21	1514
88.22	1537
88.23	1531
88.24	1520
88.25	1540
88.26	1571
88.27	1585
88.28	1580
88.29	1529
88.3	1483
88.31	1480
88.32	1538
88.33	1520
88.34	1517
88.35	1531
88.36	1495
88.37	1516
88.38	1538
88.39	1522
88.4	1503
88.41	1525
88.42	1548
88.43	1531
88.44	1499
88.45	1504
88.46	1521
88.47	1509
88.48	1510
88.49	1488
88.5	1505
88.51	1527
88.52	1523
88.53	1507
88.54	1504
88.55	1522
88.56	1491
88.57	1510
88.58	1514
88.59	1517
88.6	1537
88.61	1559
88.62	1556
88.63	1527
88.64	1528
88.65	1531
88.66	1511
88.67	1495
88.68	1501
88.69	1504
88.7	1517
88.71	1548
88.72	1527
88.73	1541
88.74	1520
88.75	1520
88.76	1517
88.77	1515
88.78	1513
88.79	1527
88.8	1535
88.81	1521
88.82	1545
88.83	1536
88.84	1511
88.85	1527
88.86	1523
88.87	1496
88.88	1497
88.89	1507
88.9	1524
88.91	1524
88.92	1539
88.93	1501
88.94	1494
88.95	1529
88.96	1535
88.97	1540
88.98	1511
88.99	1511
89.0	1555
89.01	1533
89.02	1519
89.03	1507
89.04	1494
89.05	1527
89.06	1550
89.07	1529
89.08	1532
89.09	1554
89.1	1536
89.11	1521
89.12	1533
89.13	1537
89.14	1527
89.15	1520
89.16	1503
89.17	1502
89.18	1533
89.19	1532
89.2	1522
89.21	1522
89.22	1518
89.23	1516
89.24	1513
89.25	1529
89.26	1548
89.27	1540
89.28	1527
89.29	1501
89.3	1489
89.31	1520
89.32	1549
89.33	1523
89.34	1490
89.35	1518
89.36	1520
89.37	1542
89.38	1547
89.39	1540
89.4	1540
89.41	1508
89.42	1491
89.43	1488
89.44	1499
89.45	1534
89.46	1552
89.47	1540
89.48	1507
89.49	1500
89.5	1501
89.51	1490
89.52	1499
89.53	1535
89.54	1559
89.55	1564
89.56	1522
89.57	1527
89.58	1510
89.59	1489
89.6	1500
89.61	1517
89.62	1543
89.63	1550
89.64	1548
89.65	1558
89.66	1550
89.67	1539
89.68	1548
89.69	1532
89.7	1513
89.71	1537
89.72	1549
89.73	1537
89.74	1515
89.75	1542
89.76	1565
89.77	1560
89.78	1526
89.79	1515
89.8	1529
89.81	1542
89.82	1506
89.83	1504
89.84	1533
89.85	1522
89.86	1519
89.87	1520
89.88	1509
89.89	1489
89.9	1483
89.91	1485
89.92	1495
89.93	1513
89.94	1523
89.95	1512
89.96	1480
89.97	1460
89.98	1485
89.99	1498
90.0	1508
90.01	1520
90.02	1513
90.03	1542
90.04	1547
90.05	1530
90.06	1529
90.07	1516
90.08	1507
90.09	1524
90.1	1510
90.11	1504
90.12	1519
90.13	1519
90.14	1518
90.15	1531
90.16	1554
90.17	1525
90.18	1478
90.19	1476
90.2	1497
90.21	1512
90.22	1529
90.23	1560
90.24	1550
90.25	1519
90.26	1537
90.27	1577
90.28	1569
90.29	1565
90.3	1539
90.31	1505
90.32	1506
90.33	1511
90.34	1515
90.35	1509
90.36	1493
90.37	1497
90.38	1524
90.39	1555
90.4	1542
90.41	1520
90.42	1525
90.43	1516
90.44	1509
90.45	1531
90.46	1508
90.47	1491
90.48	1489
90.49	1491
90.5	1475
90.51	1451
90.52	1500
90.53	1537
90.54	1515
90.55	1505
90.56	1490
90.57	1486
90.58	1531
90.59	1563
90.6	1555
90.61	1543
90.62	1520
90.63	1516
90.64	1555
90.65	1551
90.66	1531
90.67	1538
90.68	1554
90.69	1571
90.7	1571
90.71	1546
90.72	1521
90.73	1546
90.74	1580
90.75	1584
90.76	1578
90.77	1573
90.78	1553
90.79	1534
90.8	1555
90.81	1562
90.82	1538
90.83	1538
90.84	1549
90.85	1543
90.86	1526
90.87	1509
90.88	1531
90.89	1540
90.9	1543
90.91	1584
90.92	1581
90.93	1555
90.94	1559
90.95	1550
90.96	1537
90.97	1538
90.98	1520
90.99	1521
91.0	1541
91.01	1535
91.02	1518
91.03	1524
91.04	1532
91.05	1522
91.06	1534
91.07	1566
91.08	1552
91.09	1560
91.1	1591
91.11	1573
91.12	1545
91.13	1548
91.14	1565
91.15	1553
91.16	1551
91.17	1545
91.18	1531
91.19	1533
91.2	1531
91.21	1537
91.22	1573
91.23	1589
91.24	1585
91.25	1575
91.26	1533
91.27	1536
91.28	1544
91.29	1535
91.3	1565
91.31	1568
91.32	1552
91.33	1565
91.34	1581
91.35	1575
91.36	1579
91.37	1588
91.38	1586
91.39	1585
91.4	1548
91.41	1502
91.42	1518
91.43	1574
91.44	1609
91.45	1626
91.46	1611
91.47	1588
91.48	1572
91.49	1605
91.5	1650
91.51	1645
91.52	1650
91.53	1677
91.54	1710
91.55	1678
91.56	1641
91.57	1659
91.58	1670
91.59	1691
91.6	1703
91.61	1716
91.62	1761
91.63	1793
91.64	1800
91.65	1789
91.66	1819
91.67	1902
91.68	1946
91.69	1965
91.7	2026
91.71	2077
91.72	2105
91.73	2186
91.74	2258
91.75	2278
91.76	2279
91.77	2281
91.78	2293
91.79	2333
91.8	2349
91.81	2297
91.82	2248
91.83	2222
91.84	2204
91.85	2161
91.86	2116
91.87	2097
91.88	2049
91.89	2022
91.9	2006
91.91	1973
91.92	1977
91.93	1975
91.94	1947
91.95	1929
91.96	1924
91.97	1944
91.98	1967
91.99	1965
92.0	1973
92.01	1992
92.02	2012
92.03	2021
92.04	2019
92.05	2030
92.06	2053
92.07	2060
92.08	2062
92.09	2016
92.1	1963
92.11	1940
92.12	1925
92.13	1936
92.14	1894
92.15	1858
92.16	1868
92.17	1860
92.18	1811
92.19	1771
92.2	1743
92.21	1711
92.22	1718
92.23	1698
92.24	1687
92.25	1697
92.26	1695
92.27	1672
92.28	1643
92.29	1661
92.3	1703
92.31	1706
92.32	1715
92.33	1715
92.34	1668
92.35	1649
92.36	1627
92.37	1625
92.38	1625
92.39	1585
92.4	1573
92.41	1608
92.42	1630
92.43	1614
92.44	1595
92.45	1602
92.46	1602
92.47	1577
92.48	1553
92.49	1567
92.5	1569
92.51	1580
92.52	1594
92.53	1548
92.54	1508
92.55	1533
92.56	1560
92.57	1538
92.58	1533
92.59	1566
92.6	1573
92.61	1570
92.62	1574
92.63	1573
92.64	1532
92.65	1505
92.66	1546
92.67	1584
92.68	1567
92.69	1528
92.7	1533
92.71	1557
92.72	1557
92.73	1561
92.74	1542
92.75	1544
92.76	1594
92.77	1580
92.78	1530
92.79	1503
92.8	1498
92.81	1507
92.82	1528
92.83	1555
92.84	1546
92.85	1518
92.86	1498
92.87	1511
92.88	1519
92.89	1520
92.9	1538
92.91	1546
92.92	1536
92.93	1545
92.94	1543
92.95	1551
92.96	1599
92.97	1582
92.98	1541
92.99	1532
93.0	1529
93.01	1558
93.02	1572
93.03	1530
93.04	1516
93.05	1518
93.06	1520
93.07	1548
93.08	1564
93.09	1546
93.1	1539
93.11	1556
93.12	1549
93.13	1536
93.14	1531
93.15	1513
93.16	1520
93.17	1522
93.18	1507
93.19	1543
93.2	1541
93.21	1514
93.22	1512
93.23	1524
93.24	1563
93.25	1540
93.26	1528
93.27	1540
93.28	1514
93.29	1496
93.3	1503
93.31	1489
93.32	1510
93.33	1504
93.34	1499
93.35	1512
93.36	1542
93.37	1536
93.38	1505
93.39	1512
93.4	1536
93.41	1518
93.42	1521
93.43	1504
93.44	1538
93.45	1553
93.46	1568
93.47	1555
93.48	1546
93.49	1543
93.5	1549
93.51	1492
93.52	1472
93.53	1501
93.54	1498
93.55	1475
93.56	1464
93.57	1491
93.58	1535
93.59	1545
93.6	1541
93.61	1519
93.62	1489
93.63	1513
93.64	1530
93.65	1522
93.66	1576
93.67	1592
93.68	1548
93.69	1539
93.7	1512
93.71	1490
93.72	1507
93.73	1537
93.74	1551
93.75	1538
93.76	1532
93.77	1550
93.78	1544
93.79	1538
93.8	1538
93.81	1527
93.82	1496
93.83	1514
93.84	1505
93.85	1494
93.86	1568
93.87	1573
93.88	1551
93.89	1535
93.9	1557
93.91	1551
93.92	1526
93.93	1498
93.94	1512
93.95	1545
93.96	1549
93.97	1487
93.98	1483
93.99	1506
94.0	1513
94.01	1545
94.02	1578
94.03	1509
94.04	1488
94.05	1503
94.06	1496
94.07	1478
94.08	1516
94.09	1520
94.1	1504
94.11	1497
94.12	1489
94.13	1517
94.14	1551
94.15	1593
94.16	1580
94.17	1543
94.18	1498
94.19	1497
94.2	1529
94.21	1535
94.22	1506
94.23	1514
94.24	1549
94.25	1542
94.26	1526
94.27	1519
94.28	1539
94.29	1540
94.3	1549
94.31	1547
94.32	1508
94.33	1469
94.34	1525
94.35	1549
94.36	1525
94.37	1489
94.38	1466
94.39	1503
94.4	1513
94.41	1519
94.42	1543
94.43	1534
94.44	1523
94.45	1557
94.46	1574
94.47	1557
94.48	1555
94.49	1542
94.5	1519
94.51	1514
94.52	1531
94.53	1524
94.54	1532
94.55	1550
94.56	1522
94.57	1515
94.58	1530
94.59	1510
94.6	1481
94.61	1511
94.62	1521
94.63	1478
94.64	1471
94.65	1494
94.66	1536
94.67	1512
94.68	1489
94.69	1459
94.7	1481
94.71	1496
94.72	1508
94.73	1523
94.74	1538
94.75	1523
94.76	1531
94.77	1525
94.78	1505
94.79	1500
94.8	1508
94.81	1529
94.82	1525
94.83	1559
94.84	1594
94.85	1552
94.86	1516
94.87	1554
94.88	1535
94.89	1537
94.9	1545
94.91	1528
94.92	1536
94.93	1522
94.94	1554
94.95	1566
94.96	1507
94.97	1494
94.98	1517
94.99	1540
95.0	1546
95.01	1509
95.02	1488
95.03	1495
95.04	1514
95.05	1504
95.06	1524
95.07	1538
95.08	1549
95.09	1555
95.1	1531
95.11	1510
95.12	1492
95.13	1526
95.14	1534
95.15	1539
95.16	1549
95.17	1514
95.18	1506
95.19	1518
95.2	1506
95.21	1482
95.22	1503
95.23	1522
95.24	1518
95.25	1526
95.26	1528
95.27	1540
95.28	1564
95.29	1553
95.3	1515
95.31	1487
95.32	1536
95.33	1558
95.34	1506
95.35	1552
95.36	1517
95.37	1479
95.38	1457
95.39	1511
95.4	1534
95.41	1533
95.42	1507
95.43	1533
95.44	1533
95.45	1498
95.46	1504
95.47	1540
95.48	1540
95.49	1492
95.5	1534
95.51	1564
95.52	1575
95.53	1493
95.54	1526
95.55	1511
95.56	1517
95.57	1554
95.58	1573
95.59	1542
95.6	1549
95.61	1514
95.62	1457
95.63	1455
95.64	1505
95.65	1502
95.66	1528
95.67	1530
95.68	1494
95.69	1524
95.7	1535
95.71	1550
95.72	1535
95.73	1509
95.74	1490
95.75	1533
95.76	1510
95.77	1548
95.78	1538
95.79	1538
95.8	1558
95.81	1538
95.82	1545
95.83	1528
95.84	1534
95.85	1517
95.86	1511
95.87	1523
95.88	1527
95.89	1564
95.9	1551
95.91	1531
95.92	1520
95.93	1532
95.94	1534
95.95	1543
95.96	1519
95.97	1528
95.98	1553
95.99	1526
96.0	1505
96.01	1483
96.02	1524
96.03	1539
96.04	1509
96.05	1512
96.06	1507
96.07	1530
96.08	1572
96.09	1585
96.1	1576
96.11	1557
96.12	1553
96.13	1562
96.14	1579
96.15	1530
96.16	1545
96.17	1551
96.18	1502
96.19	1535
96.2	1553
96.21	1560
96.22	1560
96.23	1524
96.24	1537
96.25	1549
96.26	1541
96.27	1551
96.28	1554
96.29	1566
96.3	1539
96.31	1534
96.32	1565
96.33	1576
96.34	1540
96.35	1547
96.36	1572
96.37	1526
96.38	1519
96.39	1537
96.4	1547
96.41	1573
96.42	1555
96.43	1591
96.44	1593
96.45	1582
96.46	1594
96.47	1580
96.48	1582
96.49	1577
96.5	1568
96.51	1559
96.52	1586
96.53	1565
96.54	1542
96.55	1568
96.56	1599
96.57	1589
96.58	1587
96.59	1626
96.6	1657
96.61	1636
96.62	1654
96.63	1692
96.64	1704
96.65	1721
96.66	1698
96.67	1693
96.68	1745
96.69	1746
96.7	1732
96.71	1722
96.72	1765
96.73	1768
96.74	1808
96.75	1836
96.76	1837
96.77	1842
96.78	1808
96.79	1787
96.8	1780
96.81	1844
96.82	1847
96.83	1860
96.84	1781
96.85	1761
96.86	1790
96.87	1824
96.88	1798
96.89	1789
96.9	1787
96.91	1801
96.92	1772
96.93	1737
96.94	1758
96.95	1778
96.96	1766
96.97	1770
96.98	1751
96.99	1714
97.0	1691
97.01	1775
97.02	1811
97.03	1776
97.04	1767
97.05	1765
97.06	1766
97.07	1735
97.08	1753
97.09	1766
97.1	1760
97.11	1740
97.12	1763
97.13	1765
97.14	1721
97.15	1741
97.16	1714
97.17	1672
97.18	1685
97.19	1680
97.2	1667
97.21	1676
97.22	1663
97.23	1686
97.24	1674
97.25	1648
97.26	1614
97.27	1612
97.28	1583
97.29	1593
97.3	1638
97.31	1659
97.32	1613
97.33	1579
97.34	1548
97.35	1558
97.36	1603
97.37	1593
97.38	1626
97.39	1623
97.4	1589
97.41	1589
97.42	1593
97.43	1607
97.44	1587
97.45	1553
97.46	1559
97.47	1613
97.48	1585
97.49	1576
97.5	1581
97.51	1561
97.52	1512
97.53	1541
97.54	1566
97.55	1563
97.56	1535
97.57	1505
97.58	1552
97.59	1572
97.6	1558
97.61	1549
97.62	1572
97.63	1582
97.64	1537
97.65	1543
97.66	1504
97.67	1533
97.68	1536
97.69	1507
97.7	1516
97.71	1521
97.72	1520
97.73	1528
97.74	1523
97.75	1518
97.76	1504
97.77	1520
97.78	1564
97.79	1558
97.8	1545
97.81	1497
97.82	1490
97.83	1514
97.84	1539
97.85	1504
97.86	1487
97.87	1518
97.88	1516
97.89	1574
97.9	1550
97.91	1522
97.92	1554
97.93	1533
97.94	1558
97.95	1544
97.96	1522
97.97	1551
97.98	1595
97.99	1570
98.0	1514
98.01	1500
98.02	1497
98.03	1505
98.04	1525
98.05	1479
98.06	1480
98.07	1511
98.08	1486
98.09	1495
98.1	1514
98.11	1508
98.12	1510
98.13	1554
98.14	1546
98.15	1521
98.16	1527
98.17	1531
98.18	1550
98.19	1521
98.2	1519
98.21	1539
98.22	1555
98.23	1487
98.24	1495
98.25	1497
98.26	1527
98.27	1504
98.28	1506
98.29	1496
98.3	1521
98.31	1519
98.32	1493
98.33	1481
98.34	1490
98.35	1533
98.36	1606
98.37	1600
98.38	1539
98.39	1486
98.4	1492
98.41	1515
98.42	1502
98.43	1540
98.44	1572
98.45	1562
98.46	1546
98.47	1534
98.48	1539
98.49	1540
98.5	1531
98.51	1469
98.52	1494
98.53	1563
98.54	1544
98.55	1520
98.56	1557
98.57	1562
98.58	1550
98.59	1553
98.6	1560
98.61	1544
98.62	1559
98.63	1522
98.64	1510
98.65	1526
98.66	1527
98.67	1538
98.68	1547
98.69	1493
98.7	1504
98.71	1491
98.72	1508
98.73	1541
98.74	1513
98.75	1512
98.76	1508
98.77	1514
98.78	1561
98.79	1528
98.8	1513
98.81	1533
98.82	1527
98.83	1511
98.84	1521
98.85	1556
98.86	1546
98.87	1544
98.88	1548
98.89	1544
98.9	1544
98.91	1573
98.92	1475
98.93	1478
98.94	1554
98.95	1512
98.96	1469
98.97	1472
98.98	1536
98.99	1559
99.0	1555
99.01	1530
99.02	1565
99.03	1583
99.04	1570
99.05	1528
99.06	1530
99.07	1536
99.08	1523
99.09	1538
99.1	1567
99.11	1536
99.12	1544
99.13	1531
99.14	1492
99.15	1480
99.16	1467
99.17	1500
99.18	1479
99.19	1551
99.2	1529
99.21	1535
99.22	1518
99.23	1488
99.24	1458
99.25	1485
99.26	1519
99.27	1495
99.28	1504
99.29	1474
99.3	1476
99.31	1480
99.32	1524
99.33	1507
99.34	1509
99.35	1546
99.36	1574
99.37	1554
99.38	1529
99.39	1549
99.4	1563
99.41	1522
99.42	1535
99.43	1506
99.44	1525
99.45	1535
99.46	1536
99.47	1519
99.48	1506
99.49	1445
99.5	1483
99.51	1533
99.52	1563
99.53	1549
99.54	1500
99.55	1525
99.56	1539
99.57	1547
99.58	1538
99.59	1582
99.6	1538
99.61	1576
99.62	1575
99.63	1560
99.64	1528
99.65	1573
99.66	1569
99.67	1526
99.68	1546
99.69	1561
99.7	1543
99.71	1587
99.72	1553
99.73	1525
99.74	1528
99.75	1537
99.76	1565
99.77	1520
99.78	1509
99.79	1537
99.8	1572
99.81	1582
99.82	1617
99.83	1609
99.84	1599
99.85	1565
99.86	1561
99.87	1594
99.88	1555
99.89	1582
99.9	1574
99.91	1552
99.92	1560
99.93	1563
99.94	1555
99.95	1556
99.96	1579
99.97	1537
99.98	1539
99.99	1555
100.0	1566
